File: csvFiles/20210227/temp25.CSV
[TEST CONDITION]
CondName,バッテリ温度特性試験20210227
ModelID,21
Average,0
CheckDut,FALSE
AutoFine,FALSE
DateTime,2021/02/27,21:40:39
Operator,米山まうむ
Notes,運用に向けてバッテリの温度特性を測定する
運用時の消費電流を鑑み，0.1C放電で行う
なおこんなに運用直前にやることではないので，次期プロジェクトの人間はもっと早い段階で行うことをお勧めする
BatteryName,UF103450P
NominalCapacity[mAh],1800.0
NominalVoltage[V],3.70000
Volume[ml],0.10
Weight[g],38.30
SoftOvp[V],4.40000
SoftUvp[V],2.50000
SoftOah[%],110
SoftOtp[°C],60.00000
DeltaT[s],10.00000
DeltaV[V],0.10000
DeltaI[A],0.10000
ImpRange[ohm],0
Frequency[Hz],1000
AutoRange,FALSE
AfterCharge,FALSE
AfterChargeRest,FALSE
AfterDischarge,FALSE
AfterDischargeRest,FALSE
CapacityRate_C[%],OFF
CapacityRate_D[%],OFF
Impedance_C[ohm],OFF
Impedance_D[ohm],OFF
SeqInfoName,

[CHARGE SHEET]
SheetNo,2
Range,HIGH
Mode,CC-CV
ChargeTime[s],0
RestTime[s],0
Current[A],0.00000
CvVolt[V],0.00000
CvTime[s],0
ItCurrent[A],OFF
ItTime[s],OFF

[DISCHARGE SHEET]
SheetNo,2
Range,HIGH
Mode,CC
DischargeTime[s],43200
RestTime[s],0
Current[A],0.18800
CapacityVolt[V],3.70000
CutoffVolt[V],2.75000

[DISCHARGE MONITOR]
TimeElapsed[s],StdState,OpnState,LowRange,Capacity[mAh],Power[Wh],Curr[A],Volt[V],VoltHi[V],VoltLo[V],Temp[°C],TermState,CellVolt[V],CellVoltHi[V],CellVoltLo[V],CellTemp[°C],(continued)
0,0x000E,0,FALSE,0.00000,0.00000,0.00000,4.09850,NAN,NAN,25.20000
220,0x000E,1,FALSE,11.37981,0.04631,0.18930,4.06510,NAN,NAN,25.20000
450,0x000E,1,FALSE,23.38233,0.09506,0.18930,4.05820,NAN,NAN,25.30000
680,0x000E,1,FALSE,35.27867,0.14330,0.18930,4.05210,NAN,NAN,25.30000
910,0x000E,1,FALSE,47.28055,0.19189,0.18930,4.04620,NAN,NAN,25.30000
1140,0x000E,1,FALSE,59.17617,0.23999,0.18930,4.04050,NAN,NAN,25.30000
1370,0x000E,1,FALSE,71.17489,0.28843,0.18930,4.03500,NAN,NAN,25.30000
1600,0x000E,1,FALSE,83.12481,0.33661,0.18930,4.02950,NAN,NAN,25.30000
1830,0x000E,1,FALSE,95.02125,0.38451,0.18930,4.02420,NAN,NAN,25.30000
2060,0x000E,1,FALSE,107.022,0.43277,0.18930,4.01900,NAN,NAN,25.30000
2290,0x000E,1,FALSE,118.918,0.48055,0.18930,4.01380,NAN,NAN,25.30000
2520,0x000E,1,FALSE,130.916,0.52867,0.18930,4.00860,NAN,NAN,25.30000
2750,0x000E,1,FALSE,142.813,0.57633,0.18930,4.00360,NAN,NAN,25.30000
2980,0x000E,1,FALSE,154.815,0.62434,0.18930,3.99850,NAN,NAN,25.30000
3210,0x000E,1,FALSE,166.71,0.67188,0.18930,3.99350,NAN,NAN,25.30000
3440,0x000E,1,FALSE,178.658,0.71956,0.18930,3.98860,NAN,NAN,25.30000
3670,0x000E,1,FALSE,190.655,0.76738,0.18930,3.98380,NAN,NAN,25.30000
3900,0x000E,1,FALSE,202.552,0.81474,0.18930,3.97900,NAN,NAN,25.30000
4130,0x000E,1,FALSE,214.552,0.86245,0.18930,3.97430,NAN,NAN,25.30000
4360,0x000E,1,FALSE,226.452,0.90972,0.18930,3.96980,NAN,NAN,25.30000
4590,0x000E,1,FALSE,238.456,0.95734,0.18930,3.96530,NAN,NAN,25.30000
4820,0x000E,1,FALSE,250.351,1.00448,0.18930,3.96080,NAN,NAN,25.30000
5050,0x000E,1,FALSE,262.3,1.05178,0.18930,3.95640,NAN,NAN,25.30000
5280,0x000E,1,FALSE,274.304,1.09924,0.18930,3.95210,NAN,NAN,25.30000
5510,0x000E,1,FALSE,286.202,1.14624,0.18930,3.94780,NAN,NAN,25.30000
5740,0x000E,1,FALSE,298.199,1.19357,0.18930,3.94350,NAN,NAN,25.30000
5970,0x000E,1,FALSE,310.094,1.24045,0.18930,3.93930,NAN,NAN,25.30000
6200,0x000E,1,FALSE,322.092,1.28768,0.18930,3.93510,NAN,NAN,25.30000
6430,0x000E,1,FALSE,333.986,1.33446,0.18930,3.93110,NAN,NAN,25.30000
6660,0x000E,1,FALSE,345.93,1.38138,0.18930,3.92690,NAN,NAN,25.30000
6890,0x000E,1,FALSE,357.923,1.42845,0.18930,3.92290,NAN,NAN,25.30000
7120,0x000E,1,FALSE,369.815,1.47508,0.18930,3.91880,NAN,NAN,25.30000
7350,0x000E,1,FALSE,381.809,1.52205,0.18930,3.91480,NAN,NAN,25.30000
7580,0x000E,1,FALSE,393.701,1.56858,0.18930,3.91090,NAN,NAN,25.30000
7810,0x000E,1,FALSE,405.699,1.61548,0.18930,3.90700,NAN,NAN,25.30000
8040,0x000E,1,FALSE,417.596,1.66193,0.18930,3.90300,NAN,NAN,25.30000
8270,0x000E,1,FALSE,429.597,1.70874,0.18930,3.89900,NAN,NAN,25.30000
8500,0x000E,1,FALSE,441.543,1.75529,0.18930,3.89510,NAN,NAN,25.30000
8730,0x000E,1,FALSE,453.436,1.80159,0.18930,3.89110,NAN,NAN,25.30000
8960,0x000E,1,FALSE,465.433,1.84824,0.18930,3.88710,NAN,NAN,25.30000
9190,0x000E,1,FALSE,477.326,1.89445,0.18930,3.88300,NAN,NAN,25.40000
9420,0x000E,1,FALSE,489.322,1.94100,0.18930,3.87880,NAN,NAN,25.40000
9650,0x000E,1,FALSE,501.215,1.98710,0.18930,3.87440,NAN,NAN,25.40000
9880,0x000E,1,FALSE,513.207,2.03353,0.18930,3.86980,NAN,NAN,25.40000
10110,0x000E,1,FALSE,525.097,2.07951,0.18930,3.86490,NAN,NAN,25.40000
10340,0x000E,1,FALSE,537.042,2.12564,0.18930,3.85970,NAN,NAN,25.40000
10570,0x000E,1,FALSE,549.039,2.17191,0.18930,3.85400,NAN,NAN,25.30000
10800,0x000E,1,FALSE,560.926,2.21769,0.18930,3.84800,NAN,NAN,25.40000
11030,0x000E,1,FALSE,572.92,2.26380,0.18930,3.84160,NAN,NAN,25.40000
11260,0x000E,1,FALSE,584.813,2.30944,0.18930,3.83530,NAN,NAN,25.40000
11490,0x000E,1,FALSE,596.807,2.35541,0.18930,3.82930,NAN,NAN,25.30000
11720,0x000E,1,FALSE,608.694,2.40089,0.18930,3.82410,NAN,NAN,25.30000
11950,0x000E,1,FALSE,620.63,2.44650,0.18930,3.81950,NAN,NAN,25.30000
12180,0x000E,1,FALSE,632.617,2.49226,0.18930,3.81550,NAN,NAN,25.30000
12410,0x000E,1,FALSE,644.505,2.53760,0.18930,3.81200,NAN,NAN,25.30000
12640,0x000E,1,FALSE,656.497,2.58329,0.18930,3.80890,NAN,NAN,25.30000
12870,0x000E,1,FALSE,668.384,2.62854,0.18930,3.80600,NAN,NAN,25.30000
13100,0x000E,1,FALSE,680.376,2.67417,0.18930,3.80320,NAN,NAN,25.30000
13330,0x000E,1,FALSE,692.262,2.71935,0.18930,3.80060,NAN,NAN,25.30000
13560,0x000E,1,FALSE,704.199,2.76470,0.18930,3.79810,NAN,NAN,25.30000
13790,0x000E,1,FALSE,716.186,2.81021,0.18930,3.79570,NAN,NAN,25.30000
14020,0x000E,1,FALSE,728.072,2.85531,0.18930,3.79330,NAN,NAN,25.30000
14250,0x000E,1,FALSE,740.061,2.90077,0.18930,3.79100,NAN,NAN,25.30000
14480,0x000E,1,FALSE,751.948,2.94582,0.18930,3.78880,NAN,NAN,25.30000
14710,0x000E,1,FALSE,763.941,2.99124,0.18930,3.78660,NAN,NAN,25.30000
14940,0x000E,1,FALSE,775.831,3.03625,0.18930,3.78450,NAN,NAN,25.30000
15170,0x000E,1,FALSE,787.767,3.08140,0.18920,3.78240,NAN,NAN,25.30000
15400,0x000E,1,FALSE,799.757,3.12674,0.18930,3.78040,NAN,NAN,25.30000
15630,0x000E,1,FALSE,811.643,3.17166,0.18930,3.77840,NAN,NAN,25.30000
15860,0x000E,1,FALSE,823.632,3.21694,0.18930,3.77650,NAN,NAN,25.30000
16090,0x000E,1,FALSE,835.517,3.26181,0.18930,3.77460,NAN,NAN,25.30000
16320,0x000E,1,FALSE,847.506,3.30705,0.18920,3.77270,NAN,NAN,25.30000
16550,0x000E,1,FALSE,859.391,3.35187,0.18930,3.77100,NAN,NAN,25.30000
16780,0x000E,1,FALSE,871.378,3.39706,0.18930,3.76920,NAN,NAN,25.30000
17010,0x000E,1,FALSE,883.266,3.44186,0.18930,3.76750,NAN,NAN,25.30000
17240,0x000E,1,FALSE,895.203,3.48682,0.18930,3.76580,NAN,NAN,25.40000
17470,0x000E,1,FALSE,907.196,3.53197,0.18930,3.76420,NAN,NAN,25.30000
17700,0x000E,1,FALSE,919.086,3.57671,0.18930,3.76260,NAN,NAN,25.40000
17930,0x000E,1,FALSE,931.078,3.62182,0.18930,3.76110,NAN,NAN,25.30000
18160,0x000E,1,FALSE,942.962,3.66650,0.18920,3.75960,NAN,NAN,25.30000
18390,0x000E,1,FALSE,954.952,3.71157,0.18930,3.75810,NAN,NAN,25.30000
18620,0x000E,1,FALSE,966.834,3.75621,0.18920,3.75670,NAN,NAN,25.30000
18850,0x000E,1,FALSE,978.768,3.80103,0.18930,3.75540,NAN,NAN,25.40000
19080,0x000E,1,FALSE,990.754,3.84604,0.18930,3.75400,NAN,NAN,25.40000
19310,0x000E,1,FALSE,1002.64,3.89063,0.18920,3.75280,NAN,NAN,25.30000
19540,0x000E,1,FALSE,1014.62,3.93559,0.18930,3.75150,NAN,NAN,25.30000
19770,0x000E,1,FALSE,1026.5,3.98015,0.18930,3.75030,NAN,NAN,25.40000
20000,0x000E,1,FALSE,1038.49,4.02510,0.18930,3.74910,NAN,NAN,25.30000
20230,0x000E,1,FALSE,1050.37,4.06964,0.18930,3.74800,NAN,NAN,25.40000
20460,0x000E,1,FALSE,1062.3,4.11435,0.18930,3.74680,NAN,NAN,25.40000
20690,0x000E,1,FALSE,1074.29,4.15925,0.18930,3.74580,NAN,NAN,25.40000
20920,0x000E,1,FALSE,1086.17,4.20375,0.18930,3.74470,NAN,NAN,25.40000
21150,0x000E,1,FALSE,1098.16,4.24862,0.18930,3.74360,NAN,NAN,25.40000
21380,0x000E,1,FALSE,1110.04,4.29310,0.18920,3.74250,NAN,NAN,25.40000
21610,0x000E,1,FALSE,1122.02,4.33794,0.18920,3.74150,NAN,NAN,25.40000
21840,0x000E,1,FALSE,1133.9,4.38237,0.18920,3.74040,NAN,NAN,25.40000
22070,0x000E,1,FALSE,1145.83,4.42697,0.18920,3.73920,NAN,NAN,25.40000
22300,0x000E,1,FALSE,1157.81,4.47176,0.18920,3.73810,NAN,NAN,25.50000
22530,0x000E,1,FALSE,1169.69,4.51615,0.18930,3.73680,NAN,NAN,25.50000
22760,0x000E,1,FALSE,1181.67,4.56093,0.18920,3.73540,NAN,NAN,25.50000
22990,0x000E,1,FALSE,1193.56,4.60530,0.18920,3.73390,NAN,NAN,25.50000
23220,0x000E,1,FALSE,1205.54,4.65004,0.18930,3.73230,NAN,NAN,25.50000
23450,0x000E,1,FALSE,1217.43,4.69438,0.18920,3.73050,NAN,NAN,25.50000
23680,0x000E,1,FALSE,1229.41,4.73909,0.18920,3.72850,NAN,NAN,25.50000
23910,0x000E,1,FALSE,1241.3,4.78337,0.18930,3.72630,NAN,NAN,25.60000
24140,0x000E,1,FALSE,1253.23,4.82782,0.18930,3.72390,NAN,NAN,25.60000
24370,0x000E,1,FALSE,1265.21,4.87242,0.18930,3.72120,NAN,NAN,25.60000
24600,0x000E,1,FALSE,1277.09,4.91660,0.18920,3.71850,NAN,NAN,25.60000
24830,0x000E,1,FALSE,1289.07,4.96113,0.18930,3.71590,NAN,NAN,25.60000
25060,0x000E,1,FALSE,1300.95,5.00526,0.18930,3.71340,NAN,NAN,25.60000
25290,0x000E,1,FALSE,1312.93,5.04973,0.18920,3.71060,NAN,NAN,25.60000
25520,0x000E,1,FALSE,1324.81,5.09379,0.18920,3.70750,NAN,NAN,25.60000
25750,0x000E,1,FALSE,1336.74,5.13801,0.18920,3.70370,NAN,NAN,25.60000
25980,0x000E,1,FALSE,1348.73,5.18237,0.18920,3.69890,NAN,NAN,25.60000
26210,0x000E,1,FALSE,1360.61,5.22629,0.18930,3.69340,NAN,NAN,25.60000
26440,0x000E,1,FALSE,1372.6,5.27053,0.18930,3.68820,NAN,NAN,25.60000
26670,0x000E,1,FALSE,1384.49,5.31434,0.18930,3.68340,NAN,NAN,25.60000
26900,0x000E,1,FALSE,1396.48,5.35848,0.18920,3.67800,NAN,NAN,25.60000
27130,0x000E,1,FALSE,1408.37,5.40217,0.18920,3.67100,NAN,NAN,25.60000
27360,0x000E,1,FALSE,1420.32,5.44598,0.18930,3.66360,NAN,NAN,25.60000
27590,0x000E,1,FALSE,1432.31,5.48988,0.18920,3.65960,NAN,NAN,25.60000
27820,0x000E,1,FALSE,1444.19,5.53335,0.18930,3.65810,NAN,NAN,25.60000
28050,0x000E,1,FALSE,1456.18,5.57721,0.18920,3.65700,NAN,NAN,25.60000
28280,0x000E,1,FALSE,1468.08,5.62069,0.18930,3.65580,NAN,NAN,25.60000
28510,0x000E,1,FALSE,1480.07,5.66454,0.18920,3.65460,NAN,NAN,25.60000
28740,0x000E,1,FALSE,1491.96,5.70798,0.18930,3.65330,NAN,NAN,25.60000
28970,0x000E,1,FALSE,1503.91,5.75159,0.18930,3.65180,NAN,NAN,25.60000
29200,0x000E,1,FALSE,1515.9,5.79538,0.18930,3.65020,NAN,NAN,25.60000
29430,0x000E,1,FALSE,1527.79,5.83877,0.18930,3.64840,NAN,NAN,25.60000
29660,0x000E,1,FALSE,1539.79,5.88252,0.18930,3.64620,NAN,NAN,25.60000
29890,0x000E,1,FALSE,1551.68,5.92585,0.18930,3.64350,NAN,NAN,25.60000
30120,0x000E,1,FALSE,1563.67,5.96953,0.18930,3.64000,NAN,NAN,25.60000
30350,0x000E,1,FALSE,1575.56,6.01278,0.18930,3.63470,NAN,NAN,25.60000
30580,0x000E,1,FALSE,1587.55,6.05631,0.18930,3.62540,NAN,NAN,25.60000
30810,0x000E,1,FALSE,1599.44,6.09931,0.18930,3.60650,NAN,NAN,25.60000
31040,0x000E,1,FALSE,1611.38,6.14218,0.18930,3.57520,NAN,NAN,25.70000
31270,0x000E,1,FALSE,1623.36,6.18480,0.18930,3.53510,NAN,NAN,25.70000
31500,0x000E,1,FALSE,1635.25,6.22653,0.18930,3.48610,NAN,NAN,25.70000
31730,0x000E,1,FALSE,1647.24,6.26797,0.18930,3.42380,NAN,NAN,25.70000
31960,0x000E,1,FALSE,1659.12,6.30819,0.18930,3.34080,NAN,NAN,25.80000
32190,0x000E,1,FALSE,1671.11,6.34755,0.18930,3.21600,NAN,NAN,25.80000
32412,0x000E,1,FALSE,1682.59,5.16643,0.18930,2.75000,NAN,NAN,25.80000

[DISCHARGE RESULT]
LoRange,FALSE
FinishedBy,1(Cut Voltage)
OpenVolt[V],4.09200
OpenCurr[A],0.00010
OpenTemp[°C],25.20000
StartVolt[V],4.08030
StartCurr[A],0.18930
StartTemp[°C],25.20000
CutoffVolt[V],2.75000
CutoffCurr[A],0.18930
CutoffTemp[°C],25.80000
TimeElapsed[s],32412
Power[Wh],5.16643
StartPulseA[V],NAN
CurrPulseA[V],NAN
StartPulseB[V],NAN
CurrPulseB[V],NAN
TempSet[°C],OFF
TempMon[°C],OFF
HumidSet[%],OFF
HumidMon[%],OFF

[LIFE]
CycleNo,2
Action,Discharge
Start,2021/03/10,9:57:39
End,2021/03/10,18:57:49
Capacity[mAh],1344.42

[IMPEDANCE],AfterCharge,AfterRest
Range,0,0
AutoRange,FALSE,FALSE
Resistance[ohm],NAN,NAN
Reactance[ohm],NAN,NAN