File: csvFiles/20210227/temp7.CSV
[TEST CONDITION]
CondName,バッテリ温度特性試験20210227
ModelID,21
Average,0
CheckDut,FALSE
AutoFine,FALSE
DateTime,2021/02/27,21:40:39
Operator,米山まうむ
Notes,運用に向けてバッテリの温度特性を測定する
運用時の消費電流を鑑み，0.1C放電で行う
なおこんなに運用直前にやることではないので，次期プロジェクトの人間はもっと早い段階で行うことをお勧めする
BatteryName,UF103450P
NominalCapacity[mAh],1800.0
NominalVoltage[V],3.70000
Volume[ml],0.10
Weight[g],38.30
SoftOvp[V],4.40000
SoftUvp[V],2.50000
SoftOah[%],110
SoftOtp[°C],60.00000
DeltaT[s],10.00000
DeltaV[V],0.10000
DeltaI[A],0.10000
ImpRange[ohm],0
Frequency[Hz],1000
AutoRange,FALSE
AfterCharge,FALSE
AfterChargeRest,FALSE
AfterDischarge,FALSE
AfterDischargeRest,FALSE
CapacityRate_C[%],OFF
CapacityRate_D[%],OFF
Impedance_C[ohm],OFF
Impedance_D[ohm],OFF
SeqInfoName,

[CHARGE SHEET]
SheetNo,2
Range,HIGH
Mode,CC-CV
ChargeTime[s],0
RestTime[s],0
Current[A],0.00000
CvVolt[V],0.00000
CvTime[s],0
ItCurrent[A],OFF
ItTime[s],OFF

[DISCHARGE SHEET]
SheetNo,2
Range,HIGH
Mode,CC
DischargeTime[s],43200
RestTime[s],0
Current[A],0.18800
CapacityVolt[V],3.70000
CutoffVolt[V],2.75000

[DISCHARGE MONITOR]
TimeElapsed[s],StdState,OpnState,LowRange,Capacity[mAh],Power[Wh],Curr[A],Volt[V],VoltHi[V],VoltLo[V],Temp[°C],TermState,CellVolt[V],CellVoltHi[V],CellVoltLo[V],CellTemp[°C],(continued)
0,0x000E,0,FALSE,0.00000,0.00000,0.00000,4.08390,NAN,NAN,6.90000
210,0x000E,1,FALSE,10.43094,0.04211,0.18930,4.03040,NAN,NAN,7.10000
430,0x000E,1,FALSE,21.42117,0.08636,0.18930,4.02270,NAN,NAN,7.70000
650,0x000E,1,FALSE,32.45767,0.13072,0.18930,4.01590,NAN,NAN,7.10000
870,0x000E,1,FALSE,43.39819,0.17462,0.18920,4.00970,NAN,NAN,7.20000
1090,0x000E,1,FALSE,54.43889,0.21885,0.18920,4.00440,NAN,NAN,7.80000
1310,0x000E,1,FALSE,65.37989,0.26263,0.18930,3.99860,NAN,NAN,7.20000
1530,0x000E,1,FALSE,76.41901,0.30674,0.18930,3.99280,NAN,NAN,7.30000
1750,0x000E,1,FALSE,87.36086,0.35039,0.18930,3.98770,NAN,NAN,7.90000
1970,0x000E,1,FALSE,98.39828,0.39437,0.18920,3.98180,NAN,NAN,7.30000
2190,0x000E,1,FALSE,109.334,0.43788,0.18930,3.97620,NAN,NAN,7.40000
2410,0x000E,1,FALSE,120.367,0.48172,0.18930,3.97140,NAN,NAN,7.80000
2630,0x000E,1,FALSE,131.3,0.52511,0.18930,3.96580,NAN,NAN,7.20000
2850,0x000E,1,FALSE,142.283,0.56863,0.18930,3.96050,NAN,NAN,7.40000
3070,0x000E,1,FALSE,153.318,0.61231,0.18930,3.95610,NAN,NAN,7.70000
3290,0x000E,1,FALSE,164.255,0.65555,0.18930,3.95090,NAN,NAN,7.20000
3510,0x000E,1,FALSE,175.289,0.69911,0.18930,3.94610,NAN,NAN,7.40000
3730,0x000E,1,FALSE,186.22,0.74222,0.18930,3.94220,NAN,NAN,7.60000
3950,0x000E,1,FALSE,197.252,0.78568,0.18930,3.93730,NAN,NAN,7.20000
4170,0x000E,1,FALSE,208.182,0.82869,0.18930,3.93290,NAN,NAN,7.40000
4390,0x000E,1,FALSE,219.213,0.87205,0.18930,3.92920,NAN,NAN,7.50000
4610,0x000E,1,FALSE,230.142,0.91496,0.18930,3.92450,NAN,NAN,7.30000
4830,0x000E,1,FALSE,241.167,0.95820,0.18930,3.92020,NAN,NAN,7.50000
5050,0x000E,1,FALSE,252.094,1.00102,0.18930,3.91670,NAN,NAN,7.30000
5270,0x000E,1,FALSE,263.071,1.04398,0.18930,3.91200,NAN,NAN,7.30000
5490,0x000E,1,FALSE,274.095,1.08708,0.18930,3.90780,NAN,NAN,7.50000
5710,0x000E,1,FALSE,285.02,1.12975,0.18930,3.90430,NAN,NAN,7.30000
5930,0x000E,1,FALSE,296.046,1.17277,0.18930,3.89950,NAN,NAN,7.40000
6150,0x000E,1,FALSE,306.981,1.21538,0.18930,3.89530,NAN,NAN,7.60000
6370,0x000E,1,FALSE,318.013,1.25833,0.18930,3.89170,NAN,NAN,7.10000
6590,0x000E,1,FALSE,328.944,1.30084,0.18930,3.88700,NAN,NAN,7.40000
6810,0x000E,1,FALSE,339.975,1.34369,0.18930,3.88270,NAN,NAN,7.60000
7030,0x000E,1,FALSE,350.91,1.38613,0.18930,3.87890,NAN,NAN,7.10000
7250,0x000E,1,FALSE,361.942,1.42889,0.18930,3.87410,NAN,NAN,7.40000
7470,0x000E,1,FALSE,372.879,1.47123,0.18930,3.86970,NAN,NAN,7.60000
7690,0x000E,1,FALSE,383.868,1.51373,0.18920,3.86580,NAN,NAN,7.20000
7910,0x000E,1,FALSE,394.903,1.55636,0.18920,3.86070,NAN,NAN,7.40000
8130,0x000E,1,FALSE,405.835,1.59854,0.18920,3.85600,NAN,NAN,7.60000
8350,0x000E,1,FALSE,416.868,1.64105,0.18930,3.85180,NAN,NAN,7.10000
8570,0x000E,1,FALSE,427.805,1.68315,0.18920,3.84650,NAN,NAN,7.40000
8790,0x000E,1,FALSE,438.841,1.72557,0.18930,3.84150,NAN,NAN,7.60000
9010,0x000E,1,FALSE,449.777,1.76755,0.18920,3.83690,NAN,NAN,7.10000
9230,0x000E,1,FALSE,460.814,1.80986,0.18930,3.83130,NAN,NAN,7.30000
9450,0x000E,1,FALSE,471.75,1.85173,0.18930,3.82620,NAN,NAN,7.70000
9670,0x000E,1,FALSE,482.783,1.89392,0.18930,3.82160,NAN,NAN,7.10000
9890,0x000E,1,FALSE,493.713,1.93566,0.18930,3.81630,NAN,NAN,7.30000
10110,0x000E,1,FALSE,504.693,1.97753,0.18920,3.81170,NAN,NAN,7.70000
10330,0x000E,1,FALSE,515.723,2.01955,0.18920,3.80750,NAN,NAN,7.00000
10550,0x000E,1,FALSE,526.654,2.06114,0.18930,3.80300,NAN,NAN,7.30000
10770,0x000E,1,FALSE,537.685,2.10306,0.18930,3.79920,NAN,NAN,7.70000
10990,0x000E,1,FALSE,548.614,2.14457,0.18930,3.79580,NAN,NAN,6.90000
11210,0x000E,1,FALSE,559.644,2.18641,0.18930,3.79210,NAN,NAN,7.30000
11430,0x000E,1,FALSE,570.58,2.22786,0.18930,3.78900,NAN,NAN,7.70000
11650,0x000E,1,FALSE,581.615,2.26965,0.18930,3.78630,NAN,NAN,6.90000
11870,0x000E,1,FALSE,592.546,2.31102,0.18930,3.78310,NAN,NAN,7.30000
12090,0x000E,1,FALSE,603.575,2.35272,0.18930,3.78050,NAN,NAN,7.70000
12310,0x000E,1,FALSE,614.51,2.39405,0.18920,3.77810,NAN,NAN,6.80000
12530,0x000E,1,FALSE,625.495,2.43553,0.18930,3.77530,NAN,NAN,7.20000
12750,0x000E,1,FALSE,636.524,2.47715,0.18930,3.77300,NAN,NAN,7.70000
12970,0x000E,1,FALSE,647.458,2.51839,0.18930,3.77080,NAN,NAN,6.90000
13190,0x000E,1,FALSE,658.491,2.55998,0.18930,3.76830,NAN,NAN,7.20000
13410,0x000E,1,FALSE,669.421,2.60115,0.18930,3.76620,NAN,NAN,7.70000
13630,0x000E,1,FALSE,680.449,2.64267,0.18920,3.76420,NAN,NAN,6.90000
13850,0x000E,1,FALSE,691.379,2.68380,0.18930,3.76190,NAN,NAN,7.20000
14070,0x000E,1,FALSE,702.407,2.72527,0.18930,3.76010,NAN,NAN,7.70000
14290,0x000E,1,FALSE,713.334,2.76635,0.18930,3.75820,NAN,NAN,6.90000
14510,0x000E,1,FALSE,724.363,2.80778,0.18930,3.75590,NAN,NAN,7.20000
14730,0x000E,1,FALSE,735.292,2.84882,0.18930,3.75430,NAN,NAN,7.70000
14950,0x000E,1,FALSE,746.269,2.89001,0.18930,3.75250,NAN,NAN,7.00000
15170,0x000E,1,FALSE,757.297,2.93138,0.18930,3.75050,NAN,NAN,7.30000
15390,0x000E,1,FALSE,768.223,2.97235,0.18930,3.74910,NAN,NAN,7.80000
15610,0x000E,1,FALSE,779.253,3.01369,0.18930,3.74730,NAN,NAN,7.10000
15830,0x000E,1,FALSE,790.181,3.05463,0.18930,3.74540,NAN,NAN,7.30000
16050,0x000E,1,FALSE,801.21,3.09592,0.18930,3.74410,NAN,NAN,7.80000
16270,0x000E,1,FALSE,812.139,3.13683,0.18930,3.74250,NAN,NAN,7.10000
16490,0x000E,1,FALSE,823.167,3.17809,0.18930,3.74080,NAN,NAN,7.30000
16710,0x000E,1,FALSE,834.098,3.21897,0.18920,3.73970,NAN,NAN,7.80000
16930,0x000E,1,FALSE,845.136,3.26024,0.18930,3.73820,NAN,NAN,7.10000
17150,0x000E,1,FALSE,856.071,3.30111,0.18930,3.73670,NAN,NAN,7.30000
17370,0x000E,1,FALSE,867.062,3.34217,0.18930,3.73570,NAN,NAN,7.80000
17590,0x000E,1,FALSE,878.097,3.38338,0.18930,3.73430,NAN,NAN,7.10000
17810,0x000E,1,FALSE,889.032,3.42421,0.18930,3.73290,NAN,NAN,7.30000
18030,0x000E,1,FALSE,900.065,3.46538,0.18930,3.73210,NAN,NAN,7.80000
18250,0x000E,1,FALSE,910.995,3.50617,0.18920,3.73090,NAN,NAN,7.20000
18470,0x000E,1,FALSE,922.027,3.54732,0.18930,3.72960,NAN,NAN,7.30000
18690,0x000E,1,FALSE,932.957,3.58807,0.18930,3.72880,NAN,NAN,7.80000
18910,0x000E,1,FALSE,943.99,3.62921,0.18930,3.72770,NAN,NAN,7.20000
19130,0x000E,1,FALSE,954.92,3.66994,0.18930,3.72650,NAN,NAN,7.30000
19350,0x000E,1,FALSE,965.954,3.71105,0.18930,3.72570,NAN,NAN,7.80000
19570,0x000E,1,FALSE,976.888,3.75178,0.18930,3.72460,NAN,NAN,7.20000
19790,0x000E,1,FALSE,987.869,3.79267,0.18930,3.72330,NAN,NAN,7.40000
20010,0x000E,1,FALSE,998.851,3.83355,0.18930,3.72250,NAN,NAN,7.80000
20230,0x000E,1,FALSE,1009.84,3.87443,0.18930,3.72140,NAN,NAN,7.20000
20450,0x000E,1,FALSE,1020.87,3.91549,0.18930,3.72000,NAN,NAN,7.30000
20670,0x000E,1,FALSE,1031.81,3.95616,0.18930,3.71900,NAN,NAN,7.90000
20890,0x000E,1,FALSE,1042.84,3.99720,0.18930,3.71770,NAN,NAN,7.20000
21110,0x000E,1,FALSE,1053.78,4.03783,0.18930,3.71620,NAN,NAN,7.40000
21330,0x000E,1,FALSE,1064.81,4.07884,0.18930,3.71510,NAN,NAN,7.90000
21550,0x000E,1,FALSE,1075.75,4.11946,0.18930,3.71360,NAN,NAN,7.20000
21770,0x000E,1,FALSE,1086.78,4.16041,0.18930,3.71190,NAN,NAN,7.40000
21990,0x000E,1,FALSE,1097.72,4.20099,0.18930,3.71050,NAN,NAN,7.90000
22210,0x000E,1,FALSE,1108.75,4.24193,0.18930,3.70870,NAN,NAN,7.30000
22430,0x000E,1,FALSE,1119.69,4.28249,0.18930,3.70660,NAN,NAN,7.40000
22650,0x000E,1,FALSE,1130.68,4.32322,0.18930,3.70490,NAN,NAN,7.90000
22870,0x000E,1,FALSE,1141.72,4.36409,0.18930,3.70270,NAN,NAN,7.20000
23090,0x000E,1,FALSE,1152.66,4.40456,0.18930,3.70020,NAN,NAN,7.50000
23310,0x000E,1,FALSE,1163.69,4.44538,0.18930,3.69800,NAN,NAN,8.00000
23530,0x000E,1,FALSE,1174.63,4.48582,0.18930,3.69520,NAN,NAN,7.30000
23750,0x000E,1,FALSE,1185.67,4.52659,0.18930,3.69220,NAN,NAN,7.50000
23970,0x000E,1,FALSE,1196.61,4.56695,0.18930,3.68940,NAN,NAN,8.00000
24190,0x000E,1,FALSE,1207.64,4.60764,0.18920,3.68600,NAN,NAN,7.40000
24410,0x000E,1,FALSE,1218.58,4.64793,0.18930,3.68210,NAN,NAN,7.50000
24630,0x000E,1,FALSE,1229.61,4.68854,0.18930,3.67840,NAN,NAN,8.00000
24850,0x000E,1,FALSE,1240.55,4.72874,0.18920,3.67400,NAN,NAN,7.40000
25070,0x000E,1,FALSE,1251.53,4.76907,0.18930,3.66920,NAN,NAN,7.50000
25290,0x000E,1,FALSE,1262.56,4.80951,0.18930,3.66480,NAN,NAN,8.00000
25510,0x000E,1,FALSE,1273.5,4.84956,0.18930,3.65960,NAN,NAN,7.40000
25730,0x000E,1,FALSE,1284.53,4.88989,0.18930,3.65380,NAN,NAN,7.50000
25950,0x000E,1,FALSE,1295.46,4.92981,0.18930,3.64820,NAN,NAN,8.00000
26170,0x000E,1,FALSE,1306.5,4.97004,0.18930,3.64170,NAN,NAN,7.40000
26390,0x000E,1,FALSE,1317.44,5.00983,0.18930,3.63590,NAN,NAN,7.50000
26610,0x000E,1,FALSE,1328.47,5.04992,0.18930,3.63220,NAN,NAN,8.10000
26830,0x000E,1,FALSE,1339.41,5.08962,0.18930,3.62890,NAN,NAN,7.40000
27050,0x000E,1,FALSE,1350.44,5.12963,0.18930,3.62590,NAN,NAN,7.50000
27270,0x000E,1,FALSE,1361.37,5.16927,0.18930,3.62360,NAN,NAN,8.10000
27490,0x000E,1,FALSE,1372.35,5.20904,0.18930,3.62050,NAN,NAN,7.50000
27710,0x000E,1,FALSE,1383.39,5.24897,0.18930,3.61710,NAN,NAN,7.60000
27930,0x000E,1,FALSE,1394.33,5.28852,0.18920,3.61430,NAN,NAN,8.10000
28150,0x000E,1,FALSE,1405.37,5.32839,0.18920,3.61020,NAN,NAN,7.50000
28370,0x000E,1,FALSE,1416.3,5.36783,0.18930,3.60550,NAN,NAN,7.60000
28590,0x000E,1,FALSE,1427.33,5.40757,0.18930,3.60100,NAN,NAN,8.10000
28810,0x000E,1,FALSE,1438.26,5.44689,0.18930,3.59470,NAN,NAN,7.50000
29030,0x000E,1,FALSE,1449.29,5.48650,0.18930,3.58690,NAN,NAN,7.60000
29250,0x000E,1,FALSE,1460.23,5.52569,0.18930,3.57850,NAN,NAN,8.10000
29470,0x000E,1,FALSE,1471.27,5.56514,0.18930,3.56610,NAN,NAN,7.50000
29690,0x000E,1,FALSE,1482.21,5.60407,0.18930,3.54930,NAN,NAN,7.60000
29910,0x000E,1,FALSE,1493.2,5.64297,0.18930,3.52730,NAN,NAN,8.10000
30130,0x000E,1,FALSE,1504.25,5.68176,0.18930,3.49450,NAN,NAN,7.60000
30350,0x000E,1,FALSE,1515.19,5.71976,0.18930,3.44970,NAN,NAN,7.70000
30570,0x000E,1,FALSE,1526.24,5.75755,0.18930,3.39250,NAN,NAN,8.20000
30790,0x000E,1,FALSE,1537.18,5.79427,0.18930,3.31610,NAN,NAN,7.70000
31010,0x000E,1,FALSE,1548.22,5.83033,0.18930,3.21040,NAN,NAN,7.80000
31230,0x000E,1,FALSE,1559.16,5.86464,0.18930,3.04290,NAN,NAN,8.40000
31390,0x000E,1,FALSE,1567.16,4.39440,0.18930,2.74990,NAN,NAN,7.70000

[DISCHARGE RESULT]
LoRange,FALSE
FinishedBy,1(Cut Voltage)
OpenVolt[V],4.05970
OpenCurr[A],0.00010
OpenTemp[°C],7.00000
StartVolt[V],4.05350
StartCurr[A],0.18920
StartTemp[°C],7.00000
CutoffVolt[V],2.74990
CutoffCurr[A],0.18930
CutoffTemp[°C],7.70000
TimeElapsed[s],31390
Power[Wh],4.39440
StartPulseA[V],NAN
CurrPulseA[V],NAN
StartPulseB[V],NAN
CurrPulseB[V],NAN
TempSet[°C],OFF
TempMon[°C],OFF
HumidSet[%],OFF
HumidMon[%],OFF

[LIFE]
CycleNo,2
Action,Discharge
Start,2021/03/05,18:29:52
End,2021/03/06,3:13:05
Capacity[mAh],1149.91

[IMPEDANCE],AfterCharge,AfterRest
Range,0,0
AutoRange,FALSE,FALSE
Resistance[ohm],NAN,NAN
Reactance[ohm],NAN,NAN