File: csvFiles/20210227/temp30.CSV
[TEST CONDITION]
CondName,バッテリ温度特性試験20210227
ModelID,21
Average,0
CheckDut,FALSE
AutoFine,FALSE
DateTime,2021/02/27,21:40:39
Operator,米山まうむ
Notes,運用に向けてバッテリの温度特性を測定する
運用時の消費電流を鑑み，0.1C放電で行う
なおこんなに運用直前にやることではないので，次期プロジェクトの人間はもっと早い段階で行うことをお勧めする
BatteryName,UF103450P
NominalCapacity[mAh],1800.0
NominalVoltage[V],3.70000
Volume[ml],0.10
Weight[g],38.30
SoftOvp[V],4.40000
SoftUvp[V],2.50000
SoftOah[%],110
SoftOtp[°C],60.00000
DeltaT[s],10.00000
DeltaV[V],0.10000
DeltaI[A],0.10000
ImpRange[ohm],0
Frequency[Hz],1000
AutoRange,FALSE
AfterCharge,FALSE
AfterChargeRest,FALSE
AfterDischarge,FALSE
AfterDischargeRest,FALSE
CapacityRate_C[%],OFF
CapacityRate_D[%],OFF
Impedance_C[ohm],OFF
Impedance_D[ohm],OFF
SeqInfoName,

[CHARGE SHEET]
SheetNo,2
Range,HIGH
Mode,CC-CV
ChargeTime[s],0
RestTime[s],0
Current[A],0.00000
CvVolt[V],0.00000
CvTime[s],0
ItCurrent[A],OFF
ItTime[s],OFF

[DISCHARGE SHEET]
SheetNo,2
Range,HIGH
Mode,CC
DischargeTime[s],43200
RestTime[s],0
Current[A],0.18800
CapacityVolt[V],3.70000
CutoffVolt[V],2.75000

[DISCHARGE MONITOR]
TimeElapsed[s],StdState,OpnState,LowRange,Capacity[mAh],Power[Wh],Curr[A],Volt[V],VoltHi[V],VoltLo[V],Temp[°C],TermState,CellVolt[V],CellVoltHi[V],CellVoltLo[V],CellTemp[°C],(continued)
0,0x000E,0,FALSE,0.00000,0.00000,0.00000,4.09960,NAN,NAN,30.20000
220,0x000E,1,FALSE,10.91786,0.04447,0.18930,4.06930,NAN,NAN,30.20000
450,0x000E,1,FALSE,22.44114,0.09132,0.18930,4.06260,NAN,NAN,30.20000
680,0x000E,1,FALSE,33.86680,0.13770,0.18930,4.05650,NAN,NAN,30.20000
910,0x000E,1,FALSE,45.39119,0.18441,0.18930,4.05070,NAN,NAN,30.20000
1140,0x000E,1,FALSE,56.81842,0.23067,0.18930,4.04500,NAN,NAN,30.20000
1370,0x000E,1,FALSE,68.34264,0.27725,0.18930,4.03950,NAN,NAN,30.20000
1600,0x000E,1,FALSE,79.77000,0.32337,0.18930,4.03410,NAN,NAN,30.20000
1830,0x000E,1,FALSE,91.24719,0.36964,0.18930,4.02870,NAN,NAN,30.20000
2060,0x000E,1,FALSE,102.773,0.41604,0.18930,4.02350,NAN,NAN,30.20000
2290,0x000E,1,FALSE,114.199,0.46198,0.18930,4.01830,NAN,NAN,30.20000
2520,0x000E,1,FALSE,125.725,0.50826,0.18930,4.01320,NAN,NAN,30.20000
2750,0x000E,1,FALSE,137.152,0.55409,0.18930,4.00810,NAN,NAN,30.20000
2980,0x000E,1,FALSE,148.678,0.60025,0.18930,4.00310,NAN,NAN,30.20000
3210,0x000E,1,FALSE,160.107,0.64597,0.18930,3.99810,NAN,NAN,30.20000
3440,0x000E,1,FALSE,171.584,0.69183,0.18930,3.99320,NAN,NAN,30.20000
3670,0x000E,1,FALSE,183.114,0.73784,0.18930,3.98840,NAN,NAN,30.20000
3900,0x000E,1,FALSE,194.549,0.78342,0.18930,3.98360,NAN,NAN,30.20000
4130,0x000E,1,FALSE,206.081,0.82932,0.18930,3.97890,NAN,NAN,30.20000
4360,0x000E,1,FALSE,217.514,0.87479,0.18930,3.97440,NAN,NAN,30.20000
4590,0x000E,1,FALSE,229.044,0.92058,0.18930,3.96980,NAN,NAN,30.20000
4820,0x000E,1,FALSE,240.482,0.96596,0.18930,3.96530,NAN,NAN,30.20000
5050,0x000E,1,FALSE,251.968,1.01148,0.18930,3.96090,NAN,NAN,30.20000
5280,0x000E,1,FALSE,263.505,1.05715,0.18930,3.95650,NAN,NAN,30.20000
5510,0x000E,1,FALSE,274.938,1.10235,0.18930,3.95220,NAN,NAN,30.20000
5740,0x000E,1,FALSE,286.466,1.14789,0.18930,3.94790,NAN,NAN,30.20000
5970,0x000E,1,FALSE,297.895,1.19298,0.18930,3.94370,NAN,NAN,30.20000
6200,0x000E,1,FALSE,309.426,1.23843,0.18930,3.93950,NAN,NAN,30.20000
6430,0x000E,1,FALSE,320.857,1.28343,0.18930,3.93540,NAN,NAN,30.20000
6660,0x000E,1,FALSE,332.338,1.32858,0.18930,3.93130,NAN,NAN,30.20000
6890,0x000E,1,FALSE,343.872,1.37390,0.18930,3.92730,NAN,NAN,30.20000
7120,0x000E,1,FALSE,355.307,1.41878,0.18930,3.92320,NAN,NAN,30.10000
7350,0x000E,1,FALSE,366.846,1.46403,0.18930,3.91920,NAN,NAN,30.10000
7580,0x000E,1,FALSE,378.283,1.50883,0.18930,3.91530,NAN,NAN,30.10000
7810,0x000E,1,FALSE,389.813,1.55394,0.18930,3.91130,NAN,NAN,30.10000
8040,0x000E,1,FALSE,401.243,1.59862,0.18930,3.90750,NAN,NAN,30.10000
8270,0x000E,1,FALSE,412.773,1.64365,0.18930,3.90350,NAN,NAN,30.10000
8500,0x000E,1,FALSE,424.209,1.68827,0.18930,3.89970,NAN,NAN,30.10000
8730,0x000E,1,FALSE,435.697,1.73304,0.18930,3.89570,NAN,NAN,30.10000
8960,0x000E,1,FALSE,447.233,1.77796,0.18930,3.89180,NAN,NAN,30.10000
9190,0x000E,1,FALSE,458.668,1.82243,0.18930,3.88780,NAN,NAN,30.10000
9420,0x000E,1,FALSE,470.197,1.86723,0.18930,3.88380,NAN,NAN,30.10000
9650,0x000E,1,FALSE,481.627,1.91160,0.18930,3.87960,NAN,NAN,30.10000
9880,0x000E,1,FALSE,493.158,1.95630,0.18930,3.87530,NAN,NAN,30.10000
10110,0x000E,1,FALSE,504.589,2.00057,0.18930,3.87070,NAN,NAN,30.10000
10340,0x000E,1,FALSE,516.065,2.04496,0.18930,3.86580,NAN,NAN,30.10000
10570,0x000E,1,FALSE,527.597,2.08951,0.18930,3.86060,NAN,NAN,30.20000
10800,0x000E,1,FALSE,539.031,2.13362,0.18930,3.85490,NAN,NAN,30.20000
11030,0x000E,1,FALSE,550.565,2.17804,0.18930,3.84860,NAN,NAN,30.10000
11260,0x000E,1,FALSE,561.997,2.22199,0.18930,3.84210,NAN,NAN,30.20000
11490,0x000E,1,FALSE,573.529,2.26626,0.18930,3.83580,NAN,NAN,30.10000
11720,0x000E,1,FALSE,584.966,2.31009,0.18930,3.82990,NAN,NAN,30.10000
11950,0x000E,1,FALSE,596.452,2.35405,0.18940,3.82480,NAN,NAN,30.10000
12180,0x000E,1,FALSE,607.988,2.39815,0.18930,3.82050,NAN,NAN,30.10000
12410,0x000E,1,FALSE,619.421,2.44180,0.18930,3.81680,NAN,NAN,30.10000
12640,0x000E,1,FALSE,630.956,2.48580,0.18930,3.81350,NAN,NAN,30.10000
12870,0x000E,1,FALSE,642.389,2.52938,0.18930,3.81040,NAN,NAN,30.10000
13100,0x000E,1,FALSE,653.92,2.57330,0.18930,3.80760,NAN,NAN,30.10000
13330,0x000E,1,FALSE,665.35,2.61681,0.18940,3.80500,NAN,NAN,30.10000
13560,0x000E,1,FALSE,676.831,2.66047,0.18930,3.80240,NAN,NAN,30.10000
13790,0x000E,1,FALSE,688.367,2.70432,0.18930,3.80000,NAN,NAN,30.10000
14020,0x000E,1,FALSE,699.797,2.74774,0.18930,3.79760,NAN,NAN,30.10000
14250,0x000E,1,FALSE,711.326,2.79150,0.18930,3.79530,NAN,NAN,30.10000
14480,0x000E,1,FALSE,722.756,2.83487,0.18930,3.79300,NAN,NAN,30.00000
14710,0x000E,1,FALSE,734.286,2.87858,0.18930,3.79080,NAN,NAN,30.10000
14940,0x000E,1,FALSE,745.717,2.92190,0.18940,3.78860,NAN,NAN,30.10000
15170,0x000E,1,FALSE,757.248,2.96557,0.18940,3.78650,NAN,NAN,30.10000
15400,0x000E,1,FALSE,768.73,3.00903,0.18930,3.78450,NAN,NAN,30.00000
15630,0x000E,1,FALSE,780.161,3.05228,0.18940,3.78250,NAN,NAN,30.10000
15860,0x000E,1,FALSE,791.694,3.09589,0.18930,3.78050,NAN,NAN,30.10000
16090,0x000E,1,FALSE,803.127,3.13910,0.18940,3.77860,NAN,NAN,30.10000
16320,0x000E,1,FALSE,814.661,3.18267,0.18930,3.77680,NAN,NAN,30.10000
16550,0x000E,1,FALSE,826.093,3.22583,0.18930,3.77500,NAN,NAN,30.10000
16780,0x000E,1,FALSE,837.622,3.26934,0.18940,3.77320,NAN,NAN,30.10000
17010,0x000E,1,FALSE,849.053,3.31245,0.18940,3.77140,NAN,NAN,30.10000
17240,0x000E,1,FALSE,860.531,3.35573,0.18930,3.76980,NAN,NAN,30.10000
17470,0x000E,1,FALSE,872.057,3.39917,0.18930,3.76810,NAN,NAN,30.10000
17700,0x000E,1,FALSE,883.482,3.44220,0.18930,3.76650,NAN,NAN,30.10000
17930,0x000E,1,FALSE,895.008,3.48561,0.18930,3.76490,NAN,NAN,30.10000
18160,0x000E,1,FALSE,906.436,3.52862,0.18930,3.76340,NAN,NAN,30.10000
18390,0x000E,1,FALSE,917.963,3.57199,0.18930,3.76190,NAN,NAN,30.10000
18620,0x000E,1,FALSE,929.392,3.61497,0.18930,3.76050,NAN,NAN,30.10000
18850,0x000E,1,FALSE,940.867,3.65811,0.18940,3.75910,NAN,NAN,30.10000
19080,0x000E,1,FALSE,952.39,3.70142,0.18930,3.75770,NAN,NAN,30.10000
19310,0x000E,1,FALSE,963.814,3.74434,0.18940,3.75640,NAN,NAN,30.10000
19540,0x000E,1,FALSE,975.338,3.78761,0.18940,3.75510,NAN,NAN,30.10000
19770,0x000E,1,FALSE,986.759,3.83049,0.18930,3.75380,NAN,NAN,30.10000
20000,0x000E,1,FALSE,998.282,3.87373,0.18930,3.75260,NAN,NAN,30.10000
20230,0x000E,1,FALSE,1009.71,3.91661,0.18940,3.75130,NAN,NAN,30.20000
20460,0x000E,1,FALSE,1021.2,3.95968,0.18930,3.75010,NAN,NAN,30.20000
20690,0x000E,1,FALSE,1032.72,4.00291,0.18930,3.74890,NAN,NAN,30.20000
20920,0x000E,1,FALSE,1044.16,4.04576,0.18930,3.74770,NAN,NAN,30.20000
21150,0x000E,1,FALSE,1055.69,4.08897,0.18930,3.74650,NAN,NAN,30.20000
21380,0x000E,1,FALSE,1067.12,4.13178,0.18930,3.74530,NAN,NAN,30.20000
21610,0x000E,1,FALSE,1078.65,4.17495,0.18940,3.74400,NAN,NAN,30.20000
21840,0x000E,1,FALSE,1090.08,4.21775,0.18930,3.74270,NAN,NAN,30.20000
22070,0x000E,1,FALSE,1101.61,4.26089,0.18930,3.74140,NAN,NAN,30.20000
22300,0x000E,1,FALSE,1113.09,4.30382,0.18930,3.74000,NAN,NAN,30.20000
22530,0x000E,1,FALSE,1124.52,4.34656,0.18940,3.73860,NAN,NAN,30.20000
22760,0x000E,1,FALSE,1136.05,4.38964,0.18930,3.73710,NAN,NAN,30.30000
22990,0x000E,1,FALSE,1147.47,4.43233,0.18930,3.73550,NAN,NAN,30.30000
23220,0x000E,1,FALSE,1159,4.47538,0.18930,3.73380,NAN,NAN,30.30000
23450,0x000E,1,FALSE,1170.43,4.51804,0.18930,3.73200,NAN,NAN,30.30000
23680,0x000E,1,FALSE,1181.96,4.56104,0.18930,3.73010,NAN,NAN,30.30000
23910,0x000E,1,FALSE,1193.39,4.60366,0.18930,3.72800,NAN,NAN,30.40000
24140,0x000E,1,FALSE,1204.87,4.64645,0.18930,3.72550,NAN,NAN,30.40000
24370,0x000E,1,FALSE,1216.4,4.68939,0.18930,3.72290,NAN,NAN,30.40000
24600,0x000E,1,FALSE,1227.83,4.73193,0.18940,3.72020,NAN,NAN,30.40000
24830,0x000E,1,FALSE,1239.36,4.77480,0.18930,3.71760,NAN,NAN,30.40000
25060,0x000E,1,FALSE,1250.8,4.81729,0.18930,3.71520,NAN,NAN,30.40000
25290,0x000E,1,FALSE,1262.33,4.86012,0.18930,3.71270,NAN,NAN,30.40000
25520,0x000E,1,FALSE,1273.76,4.90254,0.18940,3.71000,NAN,NAN,30.40000
25750,0x000E,1,FALSE,1285.24,4.94512,0.18930,3.70660,NAN,NAN,30.40000
25980,0x000E,1,FALSE,1296.77,4.98784,0.18930,3.70250,NAN,NAN,30.40000
26210,0x000E,1,FALSE,1308.21,5.03015,0.18940,3.69730,NAN,NAN,30.40000
26440,0x000E,1,FALSE,1319.74,5.07275,0.18930,3.69170,NAN,NAN,30.40000
26670,0x000E,1,FALSE,1331.18,5.11493,0.18930,3.68700,NAN,NAN,30.40000
26900,0x000E,1,FALSE,1342.71,5.15742,0.18930,3.68230,NAN,NAN,30.40000
27130,0x000E,1,FALSE,1354.14,5.19947,0.18930,3.67620,NAN,NAN,30.40000
27360,0x000E,1,FALSE,1365.61,5.24162,0.18930,3.66870,NAN,NAN,30.40000
27590,0x000E,1,FALSE,1377.14,5.28386,0.18930,3.66260,NAN,NAN,30.40000
27820,0x000E,1,FALSE,1388.57,5.32570,0.18930,3.66050,NAN,NAN,30.40000
28050,0x000E,1,FALSE,1400.1,5.36788,0.18930,3.65950,NAN,NAN,30.40000
28280,0x000E,1,FALSE,1411.52,5.40970,0.18930,3.65860,NAN,NAN,30.40000
28510,0x000E,1,FALSE,1423.05,5.45187,0.18930,3.65760,NAN,NAN,30.40000
28740,0x000E,1,FALSE,1434.48,5.49367,0.18940,3.65660,NAN,NAN,30.40000
28970,0x000E,1,FALSE,1445.97,5.53565,0.18930,3.65540,NAN,NAN,30.40000
29200,0x000E,1,FALSE,1457.5,5.57778,0.18930,3.65420,NAN,NAN,30.40000
29430,0x000E,1,FALSE,1468.92,5.61953,0.18930,3.65280,NAN,NAN,30.40000
29660,0x000E,1,FALSE,1480.45,5.66164,0.18940,3.65110,NAN,NAN,30.40000
29890,0x000E,1,FALSE,1491.88,5.70335,0.18940,3.64910,NAN,NAN,30.40000
30120,0x000E,1,FALSE,1503.41,5.74541,0.18930,3.64660,NAN,NAN,30.40000
30350,0x000E,1,FALSE,1514.84,5.78705,0.18940,3.64280,NAN,NAN,30.40000
30580,0x000E,1,FALSE,1526.37,5.82900,0.18930,3.63640,NAN,NAN,30.40000
30810,0x000E,1,FALSE,1537.8,5.87049,0.18940,3.62280,NAN,NAN,30.40000
31040,0x000E,1,FALSE,1549.27,5.91194,0.18930,3.59640,NAN,NAN,30.50000
31270,0x000E,1,FALSE,1560.8,5.95320,0.18930,3.56110,NAN,NAN,30.50000
31500,0x000E,1,FALSE,1572.23,5.99365,0.18930,3.51830,NAN,NAN,30.50000
31730,0x000E,1,FALSE,1583.75,6.03389,0.18930,3.46510,NAN,NAN,30.60000
31960,0x000E,1,FALSE,1595.18,6.07311,0.18930,3.39710,NAN,NAN,30.60000
32190,0x000E,1,FALSE,1606.7,6.11174,0.18930,3.30220,NAN,NAN,30.60000
32420,0x000E,1,FALSE,1618.12,6.14865,0.18930,3.14060,NAN,NAN,30.60000
32538,0x000E,1,FALSE,1624.01,5.00318,0.18930,2.75000,NAN,NAN,30.60000

[DISCHARGE RESULT]
LoRange,FALSE
FinishedBy,1(Cut Voltage)
OpenVolt[V],4.09400
OpenCurr[A],0.00010
OpenTemp[°C],30.20000
StartVolt[V],4.08310
StartCurr[A],0.18930
StartTemp[°C],30.20000
CutoffVolt[V],2.75000
CutoffCurr[A],0.18930
CutoffTemp[°C],30.60000
TimeElapsed[s],32538
Power[Wh],5.00318
StartPulseA[V],NAN
CurrPulseA[V],NAN
StartPulseB[V],NAN
CurrPulseB[V],NAN
TempSet[°C],OFF
TempMon[°C],OFF
HumidSet[%],OFF
HumidMon[%],OFF

[LIFE]
CycleNo,2
Action,Discharge
Start,2021/03/09,1:25:42
End,2021/03/09,10:28:03
Capacity[mAh],1300.92

[IMPEDANCE],AfterCharge,AfterRest
Range,0,0
AutoRange,FALSE,FALSE
Resistance[ohm],NAN,NAN
Reactance[ohm],NAN,NAN