File: csvFiles/20210227/temp5.CSV
[TEST CONDITION]
CondName,バッテリ温度特性試験20210227
ModelID,21
Average,0
CheckDut,FALSE
AutoFine,FALSE
DateTime,2021/02/27,21:40:39
Operator,米山まうむ
Notes,運用に向けてバッテリの温度特性を測定する
運用時の消費電流を鑑み，0.1C放電で行う
なおこんなに運用直前にやることではないので，次期プロジェクトの人間はもっと早い段階で行うことをお勧めする
BatteryName,UF103450P
NominalCapacity[mAh],1800.0
NominalVoltage[V],3.70000
Volume[ml],0.10
Weight[g],38.30
SoftOvp[V],4.40000
SoftUvp[V],2.50000
SoftOah[%],110
SoftOtp[°C],60.00000
DeltaT[s],10.00000
DeltaV[V],0.10000
DeltaI[A],0.10000
ImpRange[ohm],0
Frequency[Hz],1000
AutoRange,FALSE
AfterCharge,FALSE
AfterChargeRest,FALSE
AfterDischarge,FALSE
AfterDischargeRest,FALSE
CapacityRate_C[%],OFF
CapacityRate_D[%],OFF
Impedance_C[ohm],OFF
Impedance_D[ohm],OFF
SeqInfoName,

[CHARGE SHEET]
SheetNo,2
Range,HIGH
Mode,CC-CV
ChargeTime[s],0
RestTime[s],0
Current[A],0.00000
CvVolt[V],0.00000
CvTime[s],0
ItCurrent[A],OFF
ItTime[s],OFF

[DISCHARGE SHEET]
SheetNo,2
Range,HIGH
Mode,CC
DischargeTime[s],43200
RestTime[s],0
Current[A],0.18800
CapacityVolt[V],3.70000
CutoffVolt[V],2.75000

[DISCHARGE MONITOR]
TimeElapsed[s],StdState,OpnState,LowRange,Capacity[mAh],Power[Wh],Curr[A],Volt[V],VoltHi[V],VoltLo[V],Temp[°C],TermState,CellVolt[V],CellVoltHi[V],CellVoltLo[V],CellTemp[°C],(continued)
0,0x000E,0,FALSE,0.00000,0.00000,0.00000,4.07920,NAN,NAN,5.20000
210,0x000E,1,FALSE,10.86283,0.04375,0.18930,4.02010,NAN,NAN,5.40000
430,0x000E,1,FALSE,22.29519,0.08966,0.18930,4.01230,NAN,NAN,5.70000
650,0x000E,1,FALSE,33.78211,0.13570,0.18930,4.00490,NAN,NAN,5.30000
870,0x000E,1,FALSE,45.16530,0.18125,0.18930,3.99860,NAN,NAN,5.50000
1090,0x000E,1,FALSE,56.65017,0.22714,0.18930,3.99320,NAN,NAN,5.60000
1310,0x000E,1,FALSE,68.02631,0.27253,0.18930,3.98680,NAN,NAN,5.40000
1530,0x000E,1,FALSE,79.50853,0.31827,0.18930,3.98100,NAN,NAN,5.60000
1750,0x000E,1,FALSE,90.88922,0.36354,0.18930,3.97590,NAN,NAN,5.40000
1970,0x000E,1,FALSE,102.374,0.40917,0.18930,3.96970,NAN,NAN,5.40000
2190,0x000E,1,FALSE,113.756,0.45431,0.18930,3.96420,NAN,NAN,5.60000
2410,0x000E,1,FALSE,125.24,0.49981,0.18930,3.95940,NAN,NAN,5.20000
2630,0x000E,1,FALSE,136.617,0.54482,0.18930,3.95370,NAN,NAN,5.40000
2850,0x000E,1,FALSE,148.05,0.58999,0.18930,3.94870,NAN,NAN,5.60000
3070,0x000E,1,FALSE,159.534,0.63531,0.18930,3.94420,NAN,NAN,5.00000
3290,0x000E,1,FALSE,170.913,0.68015,0.18930,3.93900,NAN,NAN,5.30000
3510,0x000E,1,FALSE,182.395,0.72535,0.18930,3.93450,NAN,NAN,5.60000
3730,0x000E,1,FALSE,193.776,0.77011,0.18930,3.93040,NAN,NAN,4.90000
3950,0x000E,1,FALSE,205.259,0.81520,0.18930,3.92540,NAN,NAN,5.30000
4170,0x000E,1,FALSE,216.642,0.85986,0.18930,3.92120,NAN,NAN,5.60000
4390,0x000E,1,FALSE,228.125,0.90486,0.18930,3.91730,NAN,NAN,4.90000
4610,0x000E,1,FALSE,239.505,0.94941,0.18930,3.91250,NAN,NAN,5.30000
4830,0x000E,1,FALSE,250.989,0.99432,0.18930,3.90850,NAN,NAN,5.70000
5050,0x000E,1,FALSE,262.368,1.03877,0.18930,3.90450,NAN,NAN,4.90000
5270,0x000E,1,FALSE,273.797,1.08336,0.18930,3.89990,NAN,NAN,5.30000
5490,0x000E,1,FALSE,285.28,1.12811,0.18930,3.89590,NAN,NAN,5.80000
5710,0x000E,1,FALSE,296.657,1.17242,0.18930,3.89170,NAN,NAN,5.00000
5930,0x000E,1,FALSE,308.137,1.21706,0.18930,3.88710,NAN,NAN,5.40000
6150,0x000E,1,FALSE,319.516,1.26127,0.18930,3.88320,NAN,NAN,5.80000
6370,0x000E,1,FALSE,331.001,1.30584,0.18930,3.87880,NAN,NAN,5.20000
6590,0x000E,1,FALSE,342.383,1.34996,0.18930,3.87420,NAN,NAN,5.40000
6810,0x000E,1,FALSE,353.87,1.39443,0.18930,3.87020,NAN,NAN,5.80000
7030,0x000E,1,FALSE,365.256,1.43847,0.18930,3.86560,NAN,NAN,5.20000
7250,0x000E,1,FALSE,376.743,1.48285,0.18930,3.86080,NAN,NAN,5.50000
7470,0x000E,1,FALSE,388.127,1.52677,0.18930,3.85680,NAN,NAN,5.90000
7690,0x000E,1,FALSE,399.562,1.57085,0.18930,3.85180,NAN,NAN,5.30000
7910,0x000E,1,FALSE,411.049,1.61506,0.18930,3.84690,NAN,NAN,5.50000
8130,0x000E,1,FALSE,422.431,1.65882,0.18930,3.84260,NAN,NAN,5.90000
8350,0x000E,1,FALSE,433.916,1.70292,0.18930,3.83750,NAN,NAN,5.30000
8570,0x000E,1,FALSE,445.3,1.74657,0.18930,3.83230,NAN,NAN,5.50000
8790,0x000E,1,FALSE,456.787,1.79056,0.18930,3.82780,NAN,NAN,5.90000
9010,0x000E,1,FALSE,468.171,1.83411,0.18930,3.82250,NAN,NAN,5.30000
9230,0x000E,1,FALSE,479.658,1.87798,0.18930,3.81740,NAN,NAN,5.50000
9450,0x000E,1,FALSE,491.038,1.92140,0.18930,3.81320,NAN,NAN,5.90000
9670,0x000E,1,FALSE,502.524,1.96517,0.18930,3.80820,NAN,NAN,5.30000
9890,0x000E,1,FALSE,513.904,2.00847,0.18930,3.80360,NAN,NAN,5.50000
10110,0x000E,1,FALSE,525.332,2.05192,0.18930,3.80000,NAN,NAN,5.90000
10330,0x000E,1,FALSE,536.812,2.09551,0.18930,3.79570,NAN,NAN,5.40000
10550,0x000E,1,FALSE,548.19,2.13868,0.18930,3.79180,NAN,NAN,5.50000
10770,0x000E,1,FALSE,559.672,2.18219,0.18930,3.78880,NAN,NAN,5.90000
10990,0x000E,1,FALSE,571.047,2.22527,0.18930,3.78520,NAN,NAN,5.40000
11210,0x000E,1,FALSE,582.524,2.26869,0.18930,3.78190,NAN,NAN,5.50000
11430,0x000E,1,FALSE,593.903,2.31170,0.18930,3.77960,NAN,NAN,6.00000
11650,0x000E,1,FALSE,605.388,2.35509,0.18930,3.77620,NAN,NAN,5.30000
11870,0x000E,1,FALSE,616.765,2.39803,0.18930,3.77340,NAN,NAN,5.50000
12090,0x000E,1,FALSE,628.247,2.44135,0.18930,3.77140,NAN,NAN,5.90000
12310,0x000E,1,FALSE,639.627,2.48424,0.18930,3.76850,NAN,NAN,5.30000
12530,0x000E,1,FALSE,651.06,2.52731,0.18930,3.76600,NAN,NAN,5.50000
12750,0x000E,1,FALSE,662.544,2.57055,0.18930,3.76430,NAN,NAN,5.90000
12970,0x000E,1,FALSE,673.926,2.61337,0.18930,3.76150,NAN,NAN,5.30000
13190,0x000E,1,FALSE,685.41,2.65655,0.18930,3.75920,NAN,NAN,5.50000
13410,0x000E,1,FALSE,696.788,2.69931,0.18930,3.75770,NAN,NAN,5.90000
13630,0x000E,1,FALSE,708.273,2.74245,0.18930,3.75520,NAN,NAN,5.30000
13850,0x000E,1,FALSE,719.653,2.78517,0.18930,3.75300,NAN,NAN,5.50000
14070,0x000E,1,FALSE,731.138,2.82826,0.18930,3.75170,NAN,NAN,5.90000
14290,0x000E,1,FALSE,742.521,2.87096,0.18930,3.74930,NAN,NAN,5.30000
14510,0x000E,1,FALSE,754.009,2.91401,0.18930,3.74740,NAN,NAN,5.50000
14730,0x000E,1,FALSE,765.396,2.95668,0.18930,3.74620,NAN,NAN,5.90000
14950,0x000E,1,FALSE,776.833,2.99950,0.18930,3.74390,NAN,NAN,5.40000
15170,0x000E,1,FALSE,788.317,3.04248,0.18930,3.74210,NAN,NAN,5.50000
15390,0x000E,1,FALSE,799.698,3.08506,0.18930,3.74110,NAN,NAN,5.90000
15610,0x000E,1,FALSE,811.184,3.12802,0.18930,3.73890,NAN,NAN,5.40000
15830,0x000E,1,FALSE,822.566,3.17056,0.18930,3.73730,NAN,NAN,5.50000
16050,0x000E,1,FALSE,834.054,3.21349,0.18930,3.73640,NAN,NAN,5.90000
16270,0x000E,1,FALSE,845.436,3.25600,0.18930,3.73450,NAN,NAN,5.40000
16490,0x000E,1,FALSE,856.925,3.29889,0.18930,3.73300,NAN,NAN,5.50000
16710,0x000E,1,FALSE,868.307,3.34138,0.18930,3.73230,NAN,NAN,5.90000
16930,0x000E,1,FALSE,879.791,3.38422,0.18930,3.73040,NAN,NAN,5.40000
17150,0x000E,1,FALSE,891.173,3.42667,0.18930,3.72910,NAN,NAN,5.50000
17370,0x000E,1,FALSE,902.606,3.46930,0.18930,3.72860,NAN,NAN,5.90000
17590,0x000E,1,FALSE,914.091,3.51211,0.18930,3.72690,NAN,NAN,5.40000
17810,0x000E,1,FALSE,925.474,3.55452,0.18930,3.72560,NAN,NAN,5.50000
18030,0x000E,1,FALSE,936.961,3.59731,0.18930,3.72520,NAN,NAN,6.00000
18250,0x000E,1,FALSE,948.343,3.63970,0.18930,3.72360,NAN,NAN,5.40000
18470,0x000E,1,FALSE,959.831,3.68247,0.18930,3.72240,NAN,NAN,5.60000
18690,0x000E,1,FALSE,971.212,3.72483,0.18930,3.72190,NAN,NAN,6.00000
18910,0x000E,1,FALSE,982.7,3.76757,0.18930,3.72040,NAN,NAN,5.50000
19130,0x000E,1,FALSE,994.087,3.80993,0.18930,3.71910,NAN,NAN,5.50000
19350,0x000E,1,FALSE,1005.58,3.85265,0.18930,3.71850,NAN,NAN,6.00000
19570,0x000E,1,FALSE,1016.96,3.89497,0.18930,3.71700,NAN,NAN,5.40000
19790,0x000E,1,FALSE,1028.39,3.93746,0.18930,3.71560,NAN,NAN,5.50000
20010,0x000E,1,FALSE,1039.83,3.97994,0.18930,3.71480,NAN,NAN,6.00000
20230,0x000E,1,FALSE,1051.26,4.02241,0.18930,3.71330,NAN,NAN,5.40000
20450,0x000E,1,FALSE,1062.75,4.06505,0.18930,3.71170,NAN,NAN,5.50000
20670,0x000E,1,FALSE,1074.13,4.10729,0.18930,3.71070,NAN,NAN,6.00000
20890,0x000E,1,FALSE,1085.61,4.14988,0.18930,3.70910,NAN,NAN,5.30000
21110,0x000E,1,FALSE,1096.99,4.19208,0.18930,3.70730,NAN,NAN,5.50000
21330,0x000E,1,FALSE,1108.48,4.23465,0.18930,3.70590,NAN,NAN,5.90000
21550,0x000E,1,FALSE,1119.86,4.27682,0.18930,3.70410,NAN,NAN,5.20000
21770,0x000E,1,FALSE,1131.35,4.31935,0.18930,3.70200,NAN,NAN,5.60000
21990,0x000E,1,FALSE,1142.73,4.36147,0.18930,3.70020,NAN,NAN,5.90000
22210,0x000E,1,FALSE,1154.22,4.40396,0.18930,3.69820,NAN,NAN,5.10000
22430,0x000E,1,FALSE,1165.6,4.44602,0.18930,3.69570,NAN,NAN,5.60000
22650,0x000E,1,FALSE,1177.03,4.48825,0.18930,3.69360,NAN,NAN,5.90000
22870,0x000E,1,FALSE,1188.51,4.53064,0.18930,3.69110,NAN,NAN,5.20000
23090,0x000E,1,FALSE,1199.89,4.57262,0.18930,3.68800,NAN,NAN,5.60000
23310,0x000E,1,FALSE,1211.37,4.61494,0.18930,3.68530,NAN,NAN,5.90000
23530,0x000E,1,FALSE,1222.75,4.65686,0.18930,3.68230,NAN,NAN,5.10000
23750,0x000E,1,FALSE,1234.23,4.69912,0.18930,3.67860,NAN,NAN,5.60000
23970,0x000E,1,FALSE,1245.61,4.74095,0.18930,3.67500,NAN,NAN,5.90000
24190,0x000E,1,FALSE,1257.09,4.78314,0.18930,3.67140,NAN,NAN,5.20000
24410,0x000E,1,FALSE,1268.47,4.82489,0.18930,3.66680,NAN,NAN,5.70000
24630,0x000E,1,FALSE,1279.96,4.86697,0.18930,3.66220,NAN,NAN,5.90000
24850,0x000E,1,FALSE,1291.34,4.90863,0.18930,3.65810,NAN,NAN,5.50000
25070,0x000E,1,FALSE,1302.77,4.95042,0.18930,3.65250,NAN,NAN,5.80000
25290,0x000E,1,FALSE,1314.26,4.99233,0.18930,3.64700,NAN,NAN,5.90000
25510,0x000E,1,FALSE,1325.64,5.03381,0.18930,3.64190,NAN,NAN,5.70000
25730,0x000E,1,FALSE,1337.12,5.07559,0.18930,3.63500,NAN,NAN,5.80000
25950,0x000E,1,FALSE,1348.5,5.11691,0.18930,3.62890,NAN,NAN,5.90000
26170,0x000E,1,FALSE,1359.99,5.15856,0.18930,3.62470,NAN,NAN,5.90000
26390,0x000E,1,FALSE,1371.37,5.19977,0.18930,3.62000,NAN,NAN,5.80000
26610,0x000E,1,FALSE,1382.85,5.24133,0.18930,3.61650,NAN,NAN,5.80000
26830,0x000E,1,FALSE,1394.23,5.28247,0.18930,3.61420,NAN,NAN,6.10000
27050,0x000E,1,FALSE,1405.72,5.32395,0.18930,3.61010,NAN,NAN,5.70000
27270,0x000E,1,FALSE,1417.09,5.36500,0.18930,3.60650,NAN,NAN,5.80000
27490,0x000E,1,FALSE,1428.53,5.40621,0.18930,3.60360,NAN,NAN,6.20000
27710,0x000E,1,FALSE,1440.01,5.44757,0.18930,3.59860,NAN,NAN,5.70000
27930,0x000E,1,FALSE,1451.39,5.48849,0.18930,3.59350,NAN,NAN,5.70000
28150,0x000E,1,FALSE,1462.88,5.52973,0.18930,3.58880,NAN,NAN,6.20000
28370,0x000E,1,FALSE,1474.26,5.57054,0.18930,3.58190,NAN,NAN,5.60000
28590,0x000E,1,FALSE,1485.74,5.61163,0.18930,3.57390,NAN,NAN,5.70000
28810,0x000E,1,FALSE,1497.12,5.65225,0.18930,3.56550,NAN,NAN,6.20000
29030,0x000E,1,FALSE,1508.61,5.69314,0.18930,3.55340,NAN,NAN,5.60000
29250,0x000E,1,FALSE,1519.99,5.73350,0.18930,3.53810,NAN,NAN,5.70000
29470,0x000E,1,FALSE,1531.48,5.77402,0.18930,3.51900,NAN,NAN,6.10000
29690,0x000E,1,FALSE,1542.86,5.81394,0.18930,3.49240,NAN,NAN,5.50000
29910,0x000E,1,FALSE,1554.3,5.85367,0.18930,3.45590,NAN,NAN,5.80000
30130,0x000E,1,FALSE,1565.78,5.89310,0.18930,3.40830,NAN,NAN,6.20000
30350,0x000E,1,FALSE,1577.16,5.93156,0.18930,3.34540,NAN,NAN,5.40000
30570,0x000E,1,FALSE,1588.65,5.96951,0.18930,3.25860,NAN,NAN,6.00000
30790,0x000E,1,FALSE,1600.03,6.00593,0.18930,3.13440,NAN,NAN,6.30000
31010,0x000E,1,FALSE,1611.52,6.04081,0.18930,2.90070,NAN,NAN,5.70000
31082,0x000E,1,FALSE,1615.21,4.34628,0.18940,2.74990,NAN,NAN,6.00000

[DISCHARGE RESULT]
LoRange,FALSE
FinishedBy,1(Cut Voltage)
OpenVolt[V],4.06350
OpenCurr[A],0.00010
OpenTemp[°C],5.20000
StartVolt[V],4.04460
StartCurr[A],0.18930
StartTemp[°C],5.20000
CutoffVolt[V],2.74990
CutoffCurr[A],0.18940
CutoffTemp[°C],6.00000
TimeElapsed[s],31082
Power[Wh],4.34628
StartPulseA[V],NAN
CurrPulseA[V],NAN
StartPulseB[V],NAN
CurrPulseB[V],NAN
TempSet[°C],OFF
TempMon[°C],OFF
HumidSet[%],OFF
HumidMon[%],OFF

[LIFE]
CycleNo,2
Action,Discharge
Start,2021/03/04,22:56:44
End,2021/03/05,7:34:49
Capacity[mAh],1138.62

[IMPEDANCE],AfterCharge,AfterRest
Range,0,0
AutoRange,FALSE,FALSE
Resistance[ohm],NAN,NAN
Reactance[ohm],NAN,NAN