File: csvFiles/20210227/temp2.CSV
[TEST CONDITION]
CondName,バッテリ温度特性試験20210227
ModelID,21
Average,0
CheckDut,FALSE
AutoFine,FALSE
DateTime,2021/02/27,21:40:39
Operator,米山まうむ
Notes,運用に向けてバッテリの温度特性を測定する
運用時の消費電流を鑑み，0.1C放電で行う
なおこんなに運用直前にやることではないので，次期プロジェクトの人間はもっと早い段階で行うことをお勧めする
BatteryName,UF103450P
NominalCapacity[mAh],1800.0
NominalVoltage[V],3.70000
Volume[ml],0.10
Weight[g],38.30
SoftOvp[V],4.40000
SoftUvp[V],2.50000
SoftOah[%],110
SoftOtp[°C],60.00000
DeltaT[s],10.00000
DeltaV[V],0.10000
DeltaI[A],0.10000
ImpRange[ohm],0
Frequency[Hz],1000
AutoRange,FALSE
AfterCharge,FALSE
AfterChargeRest,FALSE
AfterDischarge,FALSE
AfterDischargeRest,FALSE
CapacityRate_C[%],OFF
CapacityRate_D[%],OFF
Impedance_C[ohm],OFF
Impedance_D[ohm],OFF
SeqInfoName,

[CHARGE SHEET]
SheetNo,2
Range,HIGH
Mode,CC-CV
ChargeTime[s],0
RestTime[s],0
Current[A],0.00000
CvVolt[V],0.00000
CvTime[s],0
ItCurrent[A],OFF
ItTime[s],OFF

[DISCHARGE SHEET]
SheetNo,2
Range,HIGH
Mode,CC
DischargeTime[s],43200
RestTime[s],0
Current[A],0.18800
CapacityVolt[V],3.70000
CutoffVolt[V],2.75000

[DISCHARGE MONITOR]
TimeElapsed[s],StdState,OpnState,LowRange,Capacity[mAh],Power[Wh],Curr[A],Volt[V],VoltHi[V],VoltLo[V],Temp[°C],TermState,CellVolt[V],CellVoltHi[V],CellVoltLo[V],CellTemp[°C],(continued)
0,0x000E,0,FALSE,0.00000,0.00000,0.00000,4.07300,NAN,NAN,2.40000
210,0x000E,1,FALSE,10.43525,0.04192,0.18930,4.00930,NAN,NAN,2.60000
430,0x000E,1,FALSE,21.42503,0.08592,0.18930,3.99960,NAN,NAN,2.00000
650,0x000E,1,FALSE,32.46931,0.13005,0.18930,3.99240,NAN,NAN,2.40000
870,0x000E,1,FALSE,43.41267,0.17371,0.18930,3.98640,NAN,NAN,2.60000
1090,0x000E,1,FALSE,54.45400,0.21768,0.18930,3.97970,NAN,NAN,1.90000
1310,0x000E,1,FALSE,65.39797,0.26120,0.18930,3.97330,NAN,NAN,2.40000
1530,0x000E,1,FALSE,76.43903,0.30503,0.18930,3.96780,NAN,NAN,2.60000
1750,0x000E,1,FALSE,87.38167,0.34842,0.18930,3.96210,NAN,NAN,2.00000
1970,0x000E,1,FALSE,98.42367,0.39213,0.18930,3.95570,NAN,NAN,2.30000
2190,0x000E,1,FALSE,109.366,0.43538,0.18930,3.95060,NAN,NAN,2.50000
2410,0x000E,1,FALSE,120.406,0.47897,0.18930,3.94590,NAN,NAN,2.30000
2630,0x000E,1,FALSE,131.351,0.52212,0.18930,3.93990,NAN,NAN,2.30000
2850,0x000E,1,FALSE,142.346,0.56540,0.18930,3.93510,NAN,NAN,2.50000
3070,0x000E,1,FALSE,153.389,0.60883,0.18930,3.93100,NAN,NAN,2.60000
3290,0x000E,1,FALSE,164.326,0.65180,0.18930,3.92550,NAN,NAN,2.10000
3510,0x000E,1,FALSE,175.364,0.69509,0.18930,3.92090,NAN,NAN,2.40000
3730,0x000E,1,FALSE,186.302,0.73796,0.18930,3.91710,NAN,NAN,2.60000
3950,0x000E,1,FALSE,197.341,0.78117,0.18930,3.91240,NAN,NAN,1.80000
4170,0x000E,1,FALSE,208.284,0.82395,0.18930,3.90760,NAN,NAN,2.30000
4390,0x000E,1,FALSE,219.329,0.86709,0.18930,3.90380,NAN,NAN,2.50000
4610,0x000E,1,FALSE,230.274,0.90980,0.18930,3.89990,NAN,NAN,2.00000
4830,0x000E,1,FALSE,241.321,0.95284,0.18930,3.89470,NAN,NAN,2.30000
5050,0x000E,1,FALSE,252.271,0.99546,0.18930,3.89080,NAN,NAN,2.50000
5270,0x000E,1,FALSE,263.267,1.03822,0.18930,3.88710,NAN,NAN,2.50000
5490,0x000E,1,FALSE,274.311,1.08112,0.18930,3.88180,NAN,NAN,2.30000
5710,0x000E,1,FALSE,285.254,1.12357,0.18930,3.87750,NAN,NAN,2.50000
5930,0x000E,1,FALSE,296.297,1.16637,0.18930,3.87390,NAN,NAN,2.70000
6150,0x000E,1,FALSE,307.239,1.20873,0.18930,3.86870,NAN,NAN,2.10000
6370,0x000E,1,FALSE,318.282,1.25142,0.18930,3.86400,NAN,NAN,2.40000
6590,0x000E,1,FALSE,329.23,1.29370,0.18930,3.86010,NAN,NAN,2.70000
6810,0x000E,1,FALSE,340.277,1.33631,0.18930,3.85550,NAN,NAN,1.80000
7030,0x000E,1,FALSE,351.219,1.37847,0.18930,3.85010,NAN,NAN,2.30000
7250,0x000E,1,FALSE,362.265,1.42097,0.18930,3.84580,NAN,NAN,2.60000
7470,0x000E,1,FALSE,373.206,1.46302,0.18930,3.84160,NAN,NAN,2.30000
7690,0x000E,1,FALSE,384.2,1.50522,0.18930,3.83570,NAN,NAN,2.40000
7910,0x000E,1,FALSE,395.244,1.54755,0.18930,3.83090,NAN,NAN,2.60000
8130,0x000E,1,FALSE,406.184,1.58944,0.18930,3.82680,NAN,NAN,2.70000
8350,0x000E,1,FALSE,417.229,1.63167,0.18930,3.82090,NAN,NAN,2.30000
8570,0x000E,1,FALSE,428.178,1.67347,0.18930,3.81590,NAN,NAN,2.50000
8790,0x000E,1,FALSE,439.226,1.71560,0.18930,3.81170,NAN,NAN,2.70000
9010,0x000E,1,FALSE,450.169,1.75729,0.18930,3.80660,NAN,NAN,2.00000
9230,0x000E,1,FALSE,461.213,1.79929,0.18930,3.80170,NAN,NAN,2.40000
9450,0x000E,1,FALSE,472.157,1.84088,0.18930,3.79800,NAN,NAN,2.70000
9670,0x000E,1,FALSE,483.203,1.88281,0.18930,3.79390,NAN,NAN,2.00000
9890,0x000E,1,FALSE,494.151,1.92431,0.18930,3.78940,NAN,NAN,2.40000
10110,0x000E,1,FALSE,505.15,1.96597,0.18930,3.78620,NAN,NAN,2.60000
10330,0x000E,1,FALSE,516.198,2.00778,0.18930,3.78330,NAN,NAN,2.40000
10550,0x000E,1,FALSE,527.143,2.04916,0.18930,3.77910,NAN,NAN,2.30000
10770,0x000E,1,FALSE,538.188,2.09088,0.18930,3.77620,NAN,NAN,2.50000
10990,0x000E,1,FALSE,549.134,2.13220,0.18930,3.77390,NAN,NAN,2.70000
11210,0x000E,1,FALSE,560.178,2.17386,0.18930,3.77030,NAN,NAN,2.20000
11430,0x000E,1,FALSE,571.125,2.21511,0.18930,3.76760,NAN,NAN,2.50000
11650,0x000E,1,FALSE,582.172,2.25672,0.18930,3.76560,NAN,NAN,2.70000
11870,0x000E,1,FALSE,593.118,2.29792,0.18930,3.76290,NAN,NAN,1.80000
12090,0x000E,1,FALSE,604.164,2.33947,0.18930,3.76010,NAN,NAN,2.30000
12310,0x000E,1,FALSE,615.113,2.38062,0.18930,3.75820,NAN,NAN,2.60000
12530,0x000E,1,FALSE,626.109,2.42193,0.18930,3.75630,NAN,NAN,2.20000
12750,0x000E,1,FALSE,637.155,2.46340,0.18930,3.75320,NAN,NAN,2.30000
12970,0x000E,1,FALSE,648.099,2.50447,0.18930,3.75140,NAN,NAN,2.50000
13190,0x000E,1,FALSE,659.138,2.54587,0.18930,3.75000,NAN,NAN,2.60000
13410,0x000E,1,FALSE,670.084,2.58689,0.18930,3.74700,NAN,NAN,2.30000
13630,0x000E,1,FALSE,681.132,2.62828,0.18930,3.74510,NAN,NAN,2.50000
13850,0x000E,1,FALSE,692.079,2.66927,0.18930,3.74380,NAN,NAN,2.70000
14070,0x000E,1,FALSE,703.124,2.71060,0.18930,3.74140,NAN,NAN,2.10000
14290,0x000E,1,FALSE,714.067,2.75153,0.18930,3.73940,NAN,NAN,2.40000
14510,0x000E,1,FALSE,725.113,2.79283,0.18930,3.73820,NAN,NAN,2.70000
14730,0x000E,1,FALSE,736.058,2.83373,0.18930,3.73630,NAN,NAN,1.80000
14950,0x000E,1,FALSE,747.054,2.87479,0.18930,3.73410,NAN,NAN,2.30000
15170,0x000E,1,FALSE,758.1,2.91603,0.18930,3.73280,NAN,NAN,2.60000
15390,0x000E,1,FALSE,769.046,2.95688,0.18930,3.73170,NAN,NAN,2.30000
15610,0x000E,1,FALSE,780.095,2.99810,0.18930,3.72930,NAN,NAN,2.40000
15830,0x000E,1,FALSE,791.042,3.03891,0.18930,3.72800,NAN,NAN,2.50000
16050,0x000E,1,FALSE,802.088,3.08008,0.18930,3.72740,NAN,NAN,2.90000
16270,0x000E,1,FALSE,813.033,3.12088,0.18930,3.72830,NAN,NAN,4.50000
16490,0x000E,1,FALSE,824.082,3.16209,0.18930,3.73220,NAN,NAN,6.90000
16710,0x000E,1,FALSE,835.03,3.20297,0.18930,3.73600,NAN,NAN,8.50000
16930,0x000E,1,FALSE,846.08,3.24426,0.18930,3.73870,NAN,NAN,9.70000
17150,0x000E,1,FALSE,857.03,3.28520,0.18930,3.73910,NAN,NAN,8.70000
17370,0x000E,1,FALSE,868.028,3.32630,0.18930,3.73480,NAN,NAN,5.70000
17590,0x000E,1,FALSE,879.027,3.36735,0.18930,3.72880,NAN,NAN,4.30000
17810,0x000E,1,FALSE,890.028,3.40834,0.18930,3.72480,NAN,NAN,4.00000
18030,0x000E,1,FALSE,901.078,3.44948,0.18930,3.72170,NAN,NAN,3.40000
18250,0x000E,1,FALSE,912.025,3.49020,0.18930,3.71820,NAN,NAN,3.10000
18470,0x000E,1,FALSE,923.073,3.53126,0.18930,3.71610,NAN,NAN,3.00000
18690,0x000E,1,FALSE,934.021,3.57193,0.18930,3.71470,NAN,NAN,2.90000
18910,0x000E,1,FALSE,945.07,3.61296,0.18930,3.71200,NAN,NAN,2.60000
19130,0x000E,1,FALSE,956.02,3.65359,0.18930,3.71040,NAN,NAN,2.70000
19350,0x000E,1,FALSE,967.069,3.69458,0.18930,3.70950,NAN,NAN,2.90000
19570,0x000E,1,FALSE,978.019,3.73518,0.18930,3.70710,NAN,NAN,2.40000
19790,0x000E,1,FALSE,989.018,3.77595,0.18930,3.70550,NAN,NAN,2.60000
20010,0x000E,1,FALSE,1000.02,3.81670,0.18930,3.70450,NAN,NAN,2.80000
20230,0x000E,1,FALSE,1011.02,3.85744,0.18930,3.70250,NAN,NAN,2.10000
20450,0x000E,1,FALSE,1022.07,3.89833,0.18930,3.70050,NAN,NAN,2.60000
20670,0x000E,1,FALSE,1033.02,3.93885,0.18930,3.69920,NAN,NAN,2.80000
20890,0x000E,1,FALSE,1044.06,3.97970,0.18930,3.69760,NAN,NAN,2.20000
21110,0x000E,1,FALSE,1055.02,4.02017,0.18930,3.69490,NAN,NAN,2.60000
21330,0x000E,1,FALSE,1066.07,4.06099,0.18930,3.69310,NAN,NAN,2.70000
21550,0x000E,1,FALSE,1077.02,4.10142,0.18930,3.69160,NAN,NAN,2.60000
21770,0x000E,1,FALSE,1088.06,4.14218,0.18930,3.68840,NAN,NAN,2.50000
21990,0x000E,1,FALSE,1099.01,4.18254,0.18930,3.68620,NAN,NAN,2.70000
22210,0x000E,1,FALSE,1110.06,4.22325,0.18930,3.68440,NAN,NAN,2.80000
22430,0x000E,1,FALSE,1121.01,4.26356,0.18930,3.68080,NAN,NAN,2.40000
22650,0x000E,1,FALSE,1132,4.30403,0.18930,3.67790,NAN,NAN,2.70000
22870,0x000E,1,FALSE,1143.06,4.34466,0.18930,3.67540,NAN,NAN,2.90000
23090,0x000E,1,FALSE,1154.01,4.38489,0.18930,3.67160,NAN,NAN,2.10000
23310,0x000E,1,FALSE,1165.06,4.42544,0.18930,3.66770,NAN,NAN,2.60000
23530,0x000E,1,FALSE,1176.01,4.46558,0.18930,3.66450,NAN,NAN,2.80000
23750,0x000E,1,FALSE,1187.06,4.50605,0.18930,3.66080,NAN,NAN,2.30000
23970,0x000E,1,FALSE,1198.01,4.54609,0.18930,3.65570,NAN,NAN,2.70000
24190,0x000E,1,FALSE,1209.05,4.58644,0.18930,3.65150,NAN,NAN,2.80000
24410,0x000E,1,FALSE,1220,4.62638,0.18930,3.64750,NAN,NAN,2.80000
24630,0x000E,1,FALSE,1231.04,4.66664,0.18930,3.64130,NAN,NAN,2.60000
24850,0x000E,1,FALSE,1241.99,4.70648,0.18930,3.63590,NAN,NAN,2.80000
25070,0x000E,1,FALSE,1252.99,4.74644,0.18930,3.63100,NAN,NAN,3.00000
25290,0x000E,1,FALSE,1264.04,4.78651,0.18930,3.62400,NAN,NAN,2.50000
25510,0x000E,1,FALSE,1274.99,4.82615,0.18930,3.61850,NAN,NAN,2.80000
25730,0x000E,1,FALSE,1286.03,4.86610,0.18930,3.61470,NAN,NAN,3.00000
25950,0x000E,1,FALSE,1296.98,4.90566,0.18930,3.61010,NAN,NAN,2.20000
26170,0x000E,1,FALSE,1308.03,4.94552,0.18930,3.60610,NAN,NAN,2.70000
26390,0x000E,1,FALSE,1318.98,4.98499,0.18930,3.60320,NAN,NAN,2.90000
26610,0x000E,1,FALSE,1330.03,5.02479,0.18930,3.59980,NAN,NAN,2.40000
26830,0x000E,1,FALSE,1340.98,5.06416,0.18930,3.59460,NAN,NAN,2.80000
27050,0x000E,1,FALSE,1352.03,5.10384,0.18930,3.59070,NAN,NAN,2.90000
27270,0x000E,1,FALSE,1362.98,5.14314,0.18930,3.58690,NAN,NAN,2.80000
27490,0x000E,1,FALSE,1373.98,5.18255,0.18930,3.57970,NAN,NAN,2.70000
27710,0x000E,1,FALSE,1385.03,5.22207,0.18930,3.57350,NAN,NAN,2.80000
27930,0x000E,1,FALSE,1395.98,5.26117,0.18930,3.56750,NAN,NAN,3.00000
28150,0x000E,1,FALSE,1407.03,5.30055,0.18930,3.55730,NAN,NAN,2.50000
28370,0x000E,1,FALSE,1417.98,5.33944,0.18930,3.54680,NAN,NAN,2.80000
28590,0x000E,1,FALSE,1429.04,5.37857,0.18930,3.53530,NAN,NAN,3.00000
28810,0x000E,1,FALSE,1439.99,5.41721,0.18930,3.51920,NAN,NAN,2.20000
29030,0x000E,1,FALSE,1451.04,5.45598,0.18930,3.49760,NAN,NAN,2.70000
29250,0x000E,1,FALSE,1461.99,5.49414,0.18930,3.47160,NAN,NAN,3.00000
29470,0x000E,1,FALSE,1473.04,5.53232,0.18930,3.43730,NAN,NAN,2.70000
29690,0x000E,1,FALSE,1483.99,5.56970,0.18930,3.38740,NAN,NAN,2.90000
29910,0x000E,1,FALSE,1494.99,5.60663,0.18930,3.32520,NAN,NAN,3.10000
30130,0x000E,1,FALSE,1506.04,5.64294,0.18930,3.24160,NAN,NAN,3.20000
30350,0x000E,1,FALSE,1516.99,5.67778,0.18930,3.11200,NAN,NAN,3.00000
30570,0x000E,1,FALSE,1528.04,5.71109,0.18930,2.88650,NAN,NAN,3.20000
30643,0x000E,1,FALSE,1531.69,3.89057,0.18940,2.74980,NAN,NAN,3.30000

[DISCHARGE RESULT]
LoRange,FALSE
FinishedBy,1(Cut Voltage)
OpenVolt[V],4.06120
OpenCurr[A],0.00010
OpenTemp[°C],2.30000
StartVolt[V],4.03570
StartCurr[A],0.18890
StartTemp[°C],2.30000
CutoffVolt[V],2.74980
CutoffCurr[A],0.18940
CutoffTemp[°C],3.30000
TimeElapsed[s],30643
Power[Wh],3.89057
StartPulseA[V],NAN
CurrPulseA[V],NAN
StartPulseB[V],NAN
CurrPulseB[V],NAN
TempSet[°C],OFF
TempMon[°C],OFF
HumidSet[%],OFF
HumidMon[%],OFF

[LIFE]
CycleNo,2
Action,Discharge
Start,2021/03/06,21:01:26
End,2021/03/07,5:32:12
Capacity[mAh],1019.97

[IMPEDANCE],AfterCharge,AfterRest
Range,0,0
AutoRange,FALSE,FALSE
Resistance[ohm],NAN,NAN
Reactance[ohm],NAN,NAN