File: csvFiles/20210227/temp10.CSV
[TEST CONDITION]
CondName,バッテリ温度特性試験20210227
ModelID,21
Average,0
CheckDut,FALSE
AutoFine,FALSE
DateTime,2021/02/27,21:40:39
Operator,米山まうむ
Notes,運用に向けてバッテリの温度特性を測定する
運用時の消費電流を鑑み，0.1C放電で行う
なおこんなに運用直前にやることではないので，次期プロジェクトの人間はもっと早い段階で行うことをお勧めする
BatteryName,UF103450P
NominalCapacity[mAh],1800.0
NominalVoltage[V],3.70000
Volume[ml],0.10
Weight[g],38.30
SoftOvp[V],4.40000
SoftUvp[V],2.50000
SoftOah[%],110
SoftOtp[°C],60.00000
DeltaT[s],10.00000
DeltaV[V],0.10000
DeltaI[A],0.10000
ImpRange[ohm],0
Frequency[Hz],1000
AutoRange,FALSE
AfterCharge,FALSE
AfterChargeRest,FALSE
AfterDischarge,FALSE
AfterDischargeRest,FALSE
CapacityRate_C[%],OFF
CapacityRate_D[%],OFF
Impedance_C[ohm],OFF
Impedance_D[ohm],OFF
SeqInfoName,

[CHARGE SHEET]
SheetNo,2
Range,HIGH
Mode,CC-CV
ChargeTime[s],0
RestTime[s],0
Current[A],0.00000
CvVolt[V],0.00000
CvTime[s],0
ItCurrent[A],OFF
ItTime[s],OFF

[DISCHARGE SHEET]
SheetNo,2
Range,HIGH
Mode,CC
DischargeTime[s],43200
RestTime[s],0
Current[A],0.18800
CapacityVolt[V],3.70000
CutoffVolt[V],2.75000

[DISCHARGE MONITOR]
TimeElapsed[s],StdState,OpnState,LowRange,Capacity[mAh],Power[Wh],Curr[A],Volt[V],VoltHi[V],VoltLo[V],Temp[°C],TermState,CellVolt[V],CellVoltHi[V],CellVoltLo[V],CellTemp[°C],(continued)
0,0x000E,0,FALSE,0.00000,0.00000,0.00000,4.08300,NAN,NAN,9.80000
210,0x000E,1,FALSE,10.41042,0.04202,0.18930,4.02880,NAN,NAN,10.00000
430,0x000E,1,FALSE,21.37575,0.08615,0.18930,4.02130,NAN,NAN,10.20000
650,0x000E,1,FALSE,32.38864,0.13039,0.18930,4.01420,NAN,NAN,10.00000
870,0x000E,1,FALSE,43.30286,0.17416,0.18930,4.00800,NAN,NAN,10.40000
1090,0x000E,1,FALSE,54.31664,0.21827,0.18930,4.00230,NAN,NAN,9.80000
1310,0x000E,1,FALSE,65.23234,0.26193,0.18930,3.99640,NAN,NAN,9.90000
1530,0x000E,1,FALSE,76.24356,0.30590,0.18930,3.99140,NAN,NAN,10.70000
1750,0x000E,1,FALSE,87.15466,0.34942,0.18930,3.98560,NAN,NAN,10.00000
1970,0x000E,1,FALSE,98.16641,0.39327,0.18930,3.97980,NAN,NAN,10.30000
2190,0x000E,1,FALSE,109.085,0.43669,0.18930,3.97500,NAN,NAN,9.80000
2410,0x000E,1,FALSE,120.102,0.48045,0.18930,3.96930,NAN,NAN,9.90000
2630,0x000E,1,FALSE,131.016,0.52374,0.18930,3.96430,NAN,NAN,10.60000
2850,0x000E,1,FALSE,141.979,0.56717,0.18930,3.95930,NAN,NAN,9.90000
3070,0x000E,1,FALSE,152.998,0.61077,0.18930,3.95400,NAN,NAN,9.90000
3290,0x000E,1,FALSE,163.913,0.65390,0.18930,3.94980,NAN,NAN,10.50000
3510,0x000E,1,FALSE,174.927,0.69737,0.18930,3.94480,NAN,NAN,10.00000
3730,0x000E,1,FALSE,185.839,0.74039,0.18930,3.94020,NAN,NAN,10.40000
3950,0x000E,1,FALSE,196.849,0.78374,0.18930,3.93610,NAN,NAN,9.70000
4170,0x000E,1,FALSE,207.757,0.82665,0.18930,3.93130,NAN,NAN,9.80000
4390,0x000E,1,FALSE,218.766,0.86990,0.18930,3.92740,NAN,NAN,10.60000
4610,0x000E,1,FALSE,229.673,0.91271,0.18930,3.92300,NAN,NAN,10.00000
4830,0x000E,1,FALSE,240.682,0.95587,0.18930,3.91850,NAN,NAN,10.20000
5050,0x000E,1,FALSE,251.591,0.99860,0.18930,3.91500,NAN,NAN,10.00000
5270,0x000E,1,FALSE,262.554,1.04149,0.18930,3.91030,NAN,NAN,10.00000
5490,0x000E,1,FALSE,273.565,1.08452,0.18930,3.90610,NAN,NAN,10.50000
5710,0x000E,1,FALSE,284.476,1.12711,0.18930,3.90220,NAN,NAN,9.90000
5930,0x000E,1,FALSE,295.488,1.17006,0.18930,3.89760,NAN,NAN,10.00000
6150,0x000E,1,FALSE,306.399,1.21256,0.18930,3.89410,NAN,NAN,10.60000
6370,0x000E,1,FALSE,317.409,1.25541,0.18930,3.88950,NAN,NAN,10.10000
6590,0x000E,1,FALSE,328.319,1.29781,0.18930,3.88510,NAN,NAN,10.40000
6810,0x000E,1,FALSE,339.33,1.34057,0.18930,3.88140,NAN,NAN,9.70000
7030,0x000E,1,FALSE,350.244,1.38290,0.18930,3.87680,NAN,NAN,9.90000
7250,0x000E,1,FALSE,361.253,1.42556,0.18930,3.87280,NAN,NAN,10.70000
7470,0x000E,1,FALSE,372.164,1.46779,0.18930,3.86840,NAN,NAN,10.10000
7690,0x000E,1,FALSE,383.123,1.51015,0.18930,3.86360,NAN,NAN,10.20000
7910,0x000E,1,FALSE,394.132,1.55266,0.18930,3.85990,NAN,NAN,10.30000
8130,0x000E,1,FALSE,405.042,1.59474,0.18930,3.85490,NAN,NAN,10.20000
8350,0x000E,1,FALSE,416.051,1.63715,0.18930,3.85010,NAN,NAN,10.60000
8570,0x000E,1,FALSE,426.964,1.67914,0.18930,3.84560,NAN,NAN,9.90000
8790,0x000E,1,FALSE,437.978,1.72147,0.18930,3.84040,NAN,NAN,10.00000
9010,0x000E,1,FALSE,448.891,1.76335,0.18930,3.83600,NAN,NAN,10.70000
9230,0x000E,1,FALSE,459.902,1.80556,0.18930,3.83080,NAN,NAN,10.10000
9450,0x000E,1,FALSE,470.811,1.84731,0.18930,3.82560,NAN,NAN,10.40000
9670,0x000E,1,FALSE,481.818,1.88939,0.18930,3.82130,NAN,NAN,9.90000
9890,0x000E,1,FALSE,492.727,1.93105,0.18930,3.81620,NAN,NAN,10.00000
10110,0x000E,1,FALSE,503.684,1.97283,0.18930,3.81170,NAN,NAN,10.60000
10330,0x000E,1,FALSE,514.69,2.01476,0.18930,3.80730,NAN,NAN,10.00000
10550,0x000E,1,FALSE,525.6,2.05627,0.18930,3.80280,NAN,NAN,10.10000
10770,0x000E,1,FALSE,536.608,2.09811,0.18930,3.79960,NAN,NAN,10.30000
10990,0x000E,1,FALSE,547.516,2.13953,0.18930,3.79560,NAN,NAN,10.20000
11210,0x000E,1,FALSE,558.525,2.18129,0.18930,3.79210,NAN,NAN,10.50000
11430,0x000E,1,FALSE,569.435,2.22265,0.18930,3.78910,NAN,NAN,9.80000
11650,0x000E,1,FALSE,580.444,2.26434,0.18930,3.78560,NAN,NAN,9.90000
11870,0x000E,1,FALSE,591.352,2.30562,0.18930,3.78330,NAN,NAN,10.70000
12090,0x000E,1,FALSE,602.363,2.34725,0.18930,3.78030,NAN,NAN,10.10000
12310,0x000E,1,FALSE,613.273,2.38848,0.18930,3.77740,NAN,NAN,10.30000
12530,0x000E,1,FALSE,624.234,2.42987,0.18930,3.77540,NAN,NAN,9.80000
12750,0x000E,1,FALSE,635.245,2.47142,0.18930,3.77250,NAN,NAN,9.90000
12970,0x000E,1,FALSE,646.16,2.51258,0.18930,3.77030,NAN,NAN,10.60000
13190,0x000E,1,FALSE,657.177,2.55410,0.18930,3.76810,NAN,NAN,10.00000
13410,0x000E,1,FALSE,668.089,2.59520,0.18930,3.76550,NAN,NAN,10.00000
13630,0x000E,1,FALSE,679.098,2.63664,0.18930,3.76400,NAN,NAN,10.50000
13850,0x000E,1,FALSE,690.009,2.67770,0.18930,3.76160,NAN,NAN,10.10000
14070,0x000E,1,FALSE,701.021,2.71910,0.18930,3.75940,NAN,NAN,10.40000
14290,0x000E,1,FALSE,711.934,2.76012,0.18930,3.75780,NAN,NAN,9.80000
14510,0x000E,1,FALSE,722.946,2.80148,0.18930,3.75560,NAN,NAN,9.90000
14730,0x000E,1,FALSE,733.856,2.84245,0.18930,3.75410,NAN,NAN,10.70000
14950,0x000E,1,FALSE,744.816,2.88358,0.18930,3.75220,NAN,NAN,10.00000
15170,0x000E,1,FALSE,755.824,2.92487,0.18930,3.75010,NAN,NAN,10.20000
15390,0x000E,1,FALSE,766.731,2.96576,0.18930,3.74910,NAN,NAN,10.10000
15610,0x000E,1,FALSE,777.738,3.00701,0.18930,3.74710,NAN,NAN,10.10000
15830,0x000E,1,FALSE,788.646,3.04788,0.18930,3.74550,NAN,NAN,10.60000
16050,0x000E,1,FALSE,799.654,3.08909,0.18930,3.74420,NAN,NAN,9.90000
16270,0x000E,1,FALSE,810.562,3.12992,0.18930,3.74230,NAN,NAN,9.90000
16490,0x000E,1,FALSE,821.567,3.17110,0.18930,3.74140,NAN,NAN,10.70000
16710,0x000E,1,FALSE,832.475,3.21190,0.18930,3.73980,NAN,NAN,10.10000
16930,0x000E,1,FALSE,843.481,3.25305,0.18930,3.73830,NAN,NAN,10.40000
17150,0x000E,1,FALSE,854.387,3.29381,0.18930,3.73760,NAN,NAN,10.00000
17370,0x000E,1,FALSE,865.344,3.33475,0.18920,3.73610,NAN,NAN,10.10000
17590,0x000E,1,FALSE,876.3,3.37567,0.18930,3.73500,NAN,NAN,10.60000
17810,0x000E,1,FALSE,887.258,3.41659,0.18930,3.73400,NAN,NAN,10.00000
18030,0x000E,1,FALSE,898.266,3.45769,0.18930,3.73260,NAN,NAN,10.10000
18250,0x000E,1,FALSE,909.174,3.49840,0.18930,3.73220,NAN,NAN,10.70000
18470,0x000E,1,FALSE,920.181,3.53947,0.18930,3.73090,NAN,NAN,10.20000
18690,0x000E,1,FALSE,931.085,3.58014,0.18930,3.72970,NAN,NAN,10.40000
18910,0x000E,1,FALSE,942.088,3.62118,0.18930,3.72920,NAN,NAN,9.80000
19130,0x000E,1,FALSE,952.993,3.66183,0.18930,3.72800,NAN,NAN,10.00000
19350,0x000E,1,FALSE,964,3.70286,0.18930,3.72730,NAN,NAN,10.70000
19570,0x000E,1,FALSE,974.905,3.74350,0.18930,3.72630,NAN,NAN,10.10000
19790,0x000E,1,FALSE,985.909,3.78449,0.18930,3.72500,NAN,NAN,10.10000
20010,0x000E,1,FALSE,996.808,3.82508,0.18930,3.72460,NAN,NAN,10.60000
20230,0x000E,1,FALSE,1007.76,3.86588,0.18930,3.72320,NAN,NAN,10.20000
20450,0x000E,1,FALSE,1018.77,3.90684,0.18930,3.72200,NAN,NAN,10.60000
20670,0x000E,1,FALSE,1029.68,3.94743,0.18930,3.72120,NAN,NAN,9.90000
20890,0x000E,1,FALSE,1040.68,3.98838,0.18930,3.71970,NAN,NAN,10.00000
21110,0x000E,1,FALSE,1051.59,4.02894,0.18930,3.71870,NAN,NAN,10.80000
21330,0x000E,1,FALSE,1062.6,4.06987,0.18930,3.71720,NAN,NAN,10.20000
21550,0x000E,1,FALSE,1073.5,4.11040,0.18930,3.71560,NAN,NAN,10.40000
21770,0x000E,1,FALSE,1084.51,4.15128,0.18930,3.71450,NAN,NAN,10.20000
21990,0x000E,1,FALSE,1095.41,4.19177,0.18930,3.71250,NAN,NAN,10.30000
22210,0x000E,1,FALSE,1106.42,4.23261,0.18930,3.71080,NAN,NAN,10.70000
22430,0x000E,1,FALSE,1117.33,4.27307,0.18930,3.70900,NAN,NAN,10.10000
22650,0x000E,1,FALSE,1128.28,4.31369,0.18930,3.70660,NAN,NAN,10.20000
22870,0x000E,1,FALSE,1139.29,4.35447,0.18930,3.70490,NAN,NAN,10.80000
23090,0x000E,1,FALSE,1150.2,4.39488,0.18930,3.70220,NAN,NAN,10.40000
23310,0x000E,1,FALSE,1161.21,4.43564,0.18930,3.69940,NAN,NAN,10.60000
23530,0x000E,1,FALSE,1172.13,4.47599,0.18930,3.69710,NAN,NAN,10.00000
23750,0x000E,1,FALSE,1183.13,4.51667,0.18930,3.69390,NAN,NAN,10.20000
23970,0x000E,1,FALSE,1194.04,4.55694,0.18930,3.69100,NAN,NAN,10.90000
24190,0x000E,1,FALSE,1205.05,4.59754,0.18930,3.68740,NAN,NAN,10.40000
24410,0x000E,1,FALSE,1215.95,4.63773,0.18930,3.68340,NAN,NAN,10.50000
24630,0x000E,1,FALSE,1226.96,4.67825,0.18930,3.67980,NAN,NAN,10.50000
24850,0x000E,1,FALSE,1237.86,4.71835,0.18930,3.67490,NAN,NAN,10.50000
25070,0x000E,1,FALSE,1248.82,4.75858,0.18930,3.67010,NAN,NAN,10.80000
25290,0x000E,1,FALSE,1259.83,4.79895,0.18930,3.66520,NAN,NAN,10.30000
25510,0x000E,1,FALSE,1270.73,4.83889,0.18930,3.65980,NAN,NAN,10.30000
25730,0x000E,1,FALSE,1281.74,4.87915,0.18930,3.65470,NAN,NAN,10.90000
25950,0x000E,1,FALSE,1292.65,4.91897,0.18930,3.64810,NAN,NAN,10.50000
26170,0x000E,1,FALSE,1303.65,4.95908,0.18930,3.64110,NAN,NAN,10.70000
26390,0x000E,1,FALSE,1314.56,4.99875,0.18930,3.63510,NAN,NAN,10.10000
26610,0x000E,1,FALSE,1325.57,5.03873,0.18930,3.63010,NAN,NAN,10.30000
26830,0x000E,1,FALSE,1336.48,5.07832,0.18930,3.62720,NAN,NAN,11.00000
27050,0x000E,1,FALSE,1347.48,5.11822,0.18930,3.62410,NAN,NAN,10.40000
27270,0x000E,1,FALSE,1358.39,5.15772,0.18930,3.62080,NAN,NAN,10.60000
27490,0x000E,1,FALSE,1369.35,5.19739,0.18930,3.61850,NAN,NAN,10.30000
27710,0x000E,1,FALSE,1380.36,5.23719,0.18930,3.61490,NAN,NAN,10.50000
27930,0x000E,1,FALSE,1391.26,5.27660,0.18930,3.61130,NAN,NAN,10.90000
28150,0x000E,1,FALSE,1402.27,5.31634,0.18930,3.60740,NAN,NAN,10.30000
28370,0x000E,1,FALSE,1413.18,5.35567,0.18930,3.60220,NAN,NAN,10.40000
28590,0x000E,1,FALSE,1424.19,5.39530,0.18930,3.59770,NAN,NAN,10.80000
28810,0x000E,1,FALSE,1435.1,5.43450,0.18930,3.59070,NAN,NAN,10.50000
29030,0x000E,1,FALSE,1446.1,5.47396,0.18930,3.58250,NAN,NAN,10.80000
29250,0x000E,1,FALSE,1457.01,5.51298,0.18930,3.57330,NAN,NAN,10.10000
29470,0x000E,1,FALSE,1468.02,5.55223,0.18930,3.55960,NAN,NAN,10.30000
29690,0x000E,1,FALSE,1478.92,5.59097,0.18930,3.54270,NAN,NAN,11.00000
29910,0x000E,1,FALSE,1489.88,5.62966,0.18930,3.51790,NAN,NAN,10.50000
30130,0x000E,1,FALSE,1500.89,5.66820,0.18930,3.48250,NAN,NAN,10.70000
30350,0x000E,1,FALSE,1511.8,5.70595,0.18930,3.43820,NAN,NAN,10.70000
30570,0x000E,1,FALSE,1522.8,5.74347,0.18930,3.37810,NAN,NAN,10.80000
30790,0x000E,1,FALSE,1533.71,5.77991,0.18930,3.30290,NAN,NAN,11.10000
31010,0x000E,1,FALSE,1544.72,5.81575,0.18930,3.20290,NAN,NAN,10.60000
31230,0x000E,1,FALSE,1555.63,5.84992,0.18930,3.04760,NAN,NAN,10.70000
31422,0x000E,1,FALSE,1565.19,4.41573,0.18930,2.75000,NAN,NAN,11.40000

[DISCHARGE RESULT]
LoRange,FALSE
FinishedBy,1(Cut Voltage)
OpenVolt[V],4.05870
OpenCurr[A],0.00010
OpenTemp[°C],9.80000
StartVolt[V],4.05180
StartCurr[A],0.18900
StartTemp[°C],9.80000
CutoffVolt[V],2.75000
CutoffCurr[A],0.18930
CutoffTemp[°C],11.40000
TimeElapsed[s],31422
Power[Wh],4.41573
StartPulseA[V],NAN
CurrPulseA[V],NAN
StartPulseB[V],NAN
CurrPulseB[V],NAN
TempSet[°C],OFF
TempMon[°C],OFF
HumidSet[%],OFF
HumidMon[%],OFF

[LIFE]
CycleNo,2
Action,Discharge
Start,2021/03/01,20:01:11
End,2021/03/02,4:44:57
Capacity[mAh],1155.83

[IMPEDANCE],AfterCharge,AfterRest
Range,0,0
AutoRange,FALSE,FALSE
Resistance[ohm],NAN,NAN
Reactance[ohm],NAN,NAN