File: csvFiles/20210227/temp0.CSV
[TEST CONDITION]
CondName,バッテリ温度特性試験20210227
ModelID,21
Average,0
CheckDut,FALSE
AutoFine,FALSE
DateTime,2021/02/27,21:40:39
Operator,米山まうむ
Notes,運用に向けてバッテリの温度特性を測定する
運用時の消費電流を鑑み，0.1C放電で行う
なおこんなに運用直前にやることではないので，次期プロジェクトの人間はもっと早い段階で行うことをお勧めする
BatteryName,UF103450P
NominalCapacity[mAh],1800.0
NominalVoltage[V],3.70000
Volume[ml],0.10
Weight[g],38.30
SoftOvp[V],4.40000
SoftUvp[V],2.50000
SoftOah[%],110
SoftOtp[°C],60.00000
DeltaT[s],10.00000
DeltaV[V],0.10000
DeltaI[A],0.10000
ImpRange[ohm],0
Frequency[Hz],1000
AutoRange,FALSE
AfterCharge,FALSE
AfterChargeRest,FALSE
AfterDischarge,FALSE
AfterDischargeRest,FALSE
CapacityRate_C[%],OFF
CapacityRate_D[%],OFF
Impedance_C[ohm],OFF
Impedance_D[ohm],OFF
SeqInfoName,

[CHARGE SHEET]
SheetNo,2
Range,HIGH
Mode,CC-CV
ChargeTime[s],0
RestTime[s],0
Current[A],0.00000
CvVolt[V],0.00000
CvTime[s],0
ItCurrent[A],OFF
ItTime[s],OFF

[DISCHARGE SHEET]
SheetNo,2
Range,HIGH
Mode,CC
DischargeTime[s],43200
RestTime[s],0
Current[A],0.18800
CapacityVolt[V],3.70000
CutoffVolt[V],2.75000

[DISCHARGE MONITOR]
TimeElapsed[s],StdState,OpnState,LowRange,Capacity[mAh],Power[Wh],Curr[A],Volt[V],VoltHi[V],VoltLo[V],Temp[°C],TermState,CellVolt[V],CellVoltHi[V],CellVoltLo[V],CellTemp[°C],(continued)
0,0x000E,0,FALSE,0.00000,0.00000,0.00000,4.04920,NAN,NAN,-0.30000
200,0x000E,1,FALSE,10.38103,0.04137,0.18930,3.97620,NAN,NAN,0.20000
410,0x000E,1,FALSE,21.23056,0.08445,0.18930,3.96690,NAN,NAN,-0.80000
620,0x000E,1,FALSE,32.18222,0.12785,0.18930,3.95910,NAN,NAN,0.00000
830,0x000E,1,FALSE,43.08158,0.17097,0.18930,3.95350,NAN,NAN,0.30000
1040,0x000E,1,FALSE,53.92761,0.21380,0.18930,3.94650,NAN,NAN,0.00000
1250,0x000E,1,FALSE,64.87747,0.25698,0.18930,3.94100,NAN,NAN,0.30000
1460,0x000E,1,FALSE,75.77636,0.29990,0.18930,3.93530,NAN,NAN,-0.50000
1670,0x000E,1,FALSE,86.62561,0.34257,0.18930,3.92980,NAN,NAN,0.00000
1880,0x000E,1,FALSE,97.58039,0.38559,0.18930,3.92570,NAN,NAN,0.10000
2090,0x000E,1,FALSE,108.431,0.42815,0.18940,3.91990,NAN,NAN,0.00000
2300,0x000E,1,FALSE,119.334,0.47086,0.18940,3.91570,NAN,NAN,0.40000
2510,0x000E,1,FALSE,130.286,0.51372,0.18930,3.91070,NAN,NAN,-0.30000
2720,0x000E,1,FALSE,141.135,0.55612,0.18940,3.90610,NAN,NAN,0.10000
2930,0x000E,1,FALSE,152.036,0.59867,0.18930,3.90260,NAN,NAN,-0.30000
3140,0x000E,1,FALSE,162.99,0.64139,0.18930,3.89740,NAN,NAN,0.10000
3350,0x000E,1,FALSE,173.84,0.68365,0.18940,3.89370,NAN,NAN,0.50000
3560,0x000E,1,FALSE,184.742,0.72608,0.18930,3.88890,NAN,NAN,-0.20000
3770,0x000E,1,FALSE,195.697,0.76865,0.18940,3.88470,NAN,NAN,0.20000
3980,0x000E,1,FALSE,206.545,0.81077,0.18930,3.88100,NAN,NAN,-0.70000
4190,0x000E,1,FALSE,217.442,0.85303,0.18940,3.87610,NAN,NAN,0.00000
4400,0x000E,1,FALSE,228.395,0.89546,0.18930,3.87280,NAN,NAN,0.50000
4610,0x000E,1,FALSE,239.245,0.93745,0.18940,3.86760,NAN,NAN,0.00000
4820,0x000E,1,FALSE,250.152,0.97961,0.18940,3.86360,NAN,NAN,0.30000
5030,0x000E,1,FALSE,261.109,1.02192,0.18930,3.85950,NAN,NAN,-0.50000
5240,0x000E,1,FALSE,271.962,1.06378,0.18940,3.85480,NAN,NAN,0.10000
5450,0x000E,1,FALSE,282.865,1.10578,0.18930,3.85150,NAN,NAN,0.30000
5660,0x000E,1,FALSE,293.818,1.14794,0.18930,3.84610,NAN,NAN,0.10000
5870,0x000E,1,FALSE,304.668,1.18964,0.18930,3.84210,NAN,NAN,0.40000
6080,0x000E,1,FALSE,315.569,1.23150,0.18930,3.83750,NAN,NAN,-0.30000
6290,0x000E,1,FALSE,326.521,1.27350,0.18930,3.83290,NAN,NAN,0.20000
6500,0x000E,1,FALSE,337.372,1.31507,0.18930,3.82940,NAN,NAN,0.00000
6710,0x000E,1,FALSE,348.324,1.35697,0.18940,3.82390,NAN,NAN,0.20000
6920,0x000E,1,FALSE,359.223,1.39862,0.18940,3.81980,NAN,NAN,0.50000
7130,0x000E,1,FALSE,370.069,1.44003,0.18940,3.81490,NAN,NAN,-0.20000
7340,0x000E,1,FALSE,381.018,1.48176,0.18940,3.81020,NAN,NAN,0.20000
7550,0x000E,1,FALSE,391.915,1.52327,0.18930,3.80650,NAN,NAN,-0.30000
7760,0x000E,1,FALSE,402.76,1.56451,0.18930,3.80120,NAN,NAN,0.20000
7970,0x000E,1,FALSE,413.712,1.60612,0.18930,3.79760,NAN,NAN,0.60000
8180,0x000E,1,FALSE,424.61,1.64747,0.18930,3.79260,NAN,NAN,0.10000
8390,0x000E,1,FALSE,435.456,1.68858,0.18930,3.78850,NAN,NAN,0.30000
8600,0x000E,1,FALSE,446.409,1.73006,0.18930,3.78490,NAN,NAN,-0.60000
8810,0x000E,1,FALSE,457.31,1.77129,0.18940,3.78050,NAN,NAN,0.20000
9020,0x000E,1,FALSE,468.159,1.81229,0.18940,3.77770,NAN,NAN,0.60000
9230,0x000E,1,FALSE,479.107,1.85361,0.18930,3.77330,NAN,NAN,0.10000
9440,0x000E,1,FALSE,489.951,1.89451,0.18930,3.77020,NAN,NAN,0.40000
9650,0x000E,1,FALSE,500.85,1.93559,0.18930,3.76720,NAN,NAN,-0.50000
9860,0x000E,1,FALSE,511.798,1.97681,0.18930,3.76370,NAN,NAN,0.20000
10070,0x000E,1,FALSE,522.642,2.01761,0.18940,3.76170,NAN,NAN,0.40000
10280,0x000E,1,FALSE,533.54,2.05858,0.18930,3.75800,NAN,NAN,0.20000
10490,0x000E,1,FALSE,544.489,2.09971,0.18930,3.75570,NAN,NAN,0.50000
10700,0x000E,1,FALSE,555.334,2.14043,0.18930,3.75300,NAN,NAN,-0.30000
10910,0x000E,1,FALSE,566.231,2.18130,0.18930,3.75030,NAN,NAN,0.20000
11120,0x000E,1,FALSE,577.181,2.22236,0.18930,3.74890,NAN,NAN,0.10000
11330,0x000E,1,FALSE,588.023,2.26298,0.18930,3.74560,NAN,NAN,0.20000
11540,0x000E,1,FALSE,598.921,2.30379,0.18940,3.74400,NAN,NAN,0.50000
11750,0x000E,1,FALSE,609.869,2.34476,0.18930,3.74140,NAN,NAN,-0.20000
11960,0x000E,1,FALSE,620.714,2.38532,0.18930,3.73930,NAN,NAN,0.20000
12170,0x000E,1,FALSE,631.608,2.42605,0.18930,3.73800,NAN,NAN,-0.30000
12380,0x000E,1,FALSE,642.552,2.46694,0.18930,3.73530,NAN,NAN,0.20000
12590,0x000E,1,FALSE,653.394,2.50742,0.18930,3.73410,NAN,NAN,0.60000
12800,0x000E,1,FALSE,664.284,2.54807,0.18930,3.73170,NAN,NAN,0.00000
13010,0x000E,1,FALSE,675.225,2.58889,0.18930,3.73000,NAN,NAN,0.30000
13220,0x000E,1,FALSE,686.065,2.62932,0.18930,3.72870,NAN,NAN,-0.60000
13430,0x000E,1,FALSE,697.008,2.67010,0.18940,3.72650,NAN,NAN,0.10000
13640,0x000E,1,FALSE,707.901,2.71069,0.18940,3.72580,NAN,NAN,0.60000
13850,0x000E,1,FALSE,718.744,2.75107,0.18940,3.72330,NAN,NAN,0.10000
14060,0x000E,1,FALSE,729.69,2.79182,0.18940,3.72210,NAN,NAN,0.40000
14270,0x000E,1,FALSE,740.584,2.83235,0.18940,3.72070,NAN,NAN,-0.40000
14480,0x000E,1,FALSE,751.429,2.87269,0.18940,3.71900,NAN,NAN,0.20000
14690,0x000E,1,FALSE,762.378,2.91340,0.18940,3.71870,NAN,NAN,0.30000
14900,0x000E,1,FALSE,773.271,2.95389,0.18940,3.71640,NAN,NAN,0.20000
15110,0x000E,1,FALSE,784.115,2.99418,0.18940,3.71550,NAN,NAN,0.50000
15320,0x000E,1,FALSE,795.06,3.03485,0.18940,3.71410,NAN,NAN,-0.20000
15530,0x000E,1,FALSE,805.953,3.07529,0.18930,3.71280,NAN,NAN,0.20000
15740,0x000E,1,FALSE,816.797,3.11555,0.18940,3.71260,NAN,NAN,0.00000
15950,0x000E,1,FALSE,827.743,3.15617,0.18930,3.71050,NAN,NAN,0.20000
16160,0x000E,1,FALSE,838.582,3.19638,0.18930,3.71000,NAN,NAN,0.60000
16370,0x000E,1,FALSE,849.474,3.23678,0.18930,3.70840,NAN,NAN,0.00000
16580,0x000E,1,FALSE,860.421,3.27737,0.18930,3.70730,NAN,NAN,0.30000
16790,0x000E,1,FALSE,871.266,3.31757,0.18930,3.70680,NAN,NAN,-0.40000
17000,0x000E,1,FALSE,882.167,3.35796,0.18940,3.70490,NAN,NAN,0.20000
17210,0x000E,1,FALSE,893.116,3.39852,0.18940,3.70460,NAN,NAN,0.70000
17420,0x000E,1,FALSE,903.962,3.43869,0.18940,3.70260,NAN,NAN,0.10000
17630,0x000E,1,FALSE,914.858,3.47903,0.18940,3.70160,NAN,NAN,0.40000
17840,0x000E,1,FALSE,925.809,3.51956,0.18940,3.70050,NAN,NAN,-0.50000
18050,0x000E,1,FALSE,936.658,3.55969,0.18930,3.69880,NAN,NAN,0.20000
18260,0x000E,1,FALSE,947.556,3.59999,0.18930,3.69840,NAN,NAN,0.60000
18470,0x000E,1,FALSE,958.506,3.64048,0.18930,3.69610,NAN,NAN,0.20000
18680,0x000E,1,FALSE,969.356,3.68057,0.18930,3.69500,NAN,NAN,0.50000
18890,0x000E,1,FALSE,980.253,3.72082,0.18930,3.69330,NAN,NAN,-0.20000
19100,0x000E,1,FALSE,991.205,3.76126,0.18940,3.69150,NAN,NAN,0.30000
19310,0x000E,1,FALSE,1002.05,3.80130,0.18930,3.69090,NAN,NAN,0.20000
19520,0x000E,1,FALSE,1012.95,3.84151,0.18940,3.68810,NAN,NAN,0.30000
19730,0x000E,1,FALSE,1023.9,3.88188,0.18930,3.68690,NAN,NAN,0.60000
19940,0x000E,1,FALSE,1034.75,3.92185,0.18930,3.68450,NAN,NAN,0.10000
20150,0x000E,1,FALSE,1045.65,3.96200,0.18940,3.68230,NAN,NAN,0.40000
20360,0x000E,1,FALSE,1056.6,4.00231,0.18930,3.68100,NAN,NAN,-0.20000
20570,0x000E,1,FALSE,1067.44,4.04219,0.18930,3.67790,NAN,NAN,0.40000
20780,0x000E,1,FALSE,1078.38,4.08243,0.18940,3.67610,NAN,NAN,0.70000
20990,0x000E,1,FALSE,1089.28,4.12245,0.18930,3.67280,NAN,NAN,0.20000
21200,0x000E,1,FALSE,1100.12,4.16227,0.18940,3.67020,NAN,NAN,0.50000
21410,0x000E,1,FALSE,1111.07,4.20245,0.18930,3.66780,NAN,NAN,-0.40000
21620,0x000E,1,FALSE,1121.97,4.24240,0.18930,3.66410,NAN,NAN,0.30000
21830,0x000E,1,FALSE,1132.81,4.28211,0.18940,3.66190,NAN,NAN,1.00000
22040,0x000E,1,FALSE,1143.77,4.32222,0.18940,3.66320,NAN,NAN,3.00000
22250,0x000E,1,FALSE,1154.66,4.36217,0.18940,3.66890,NAN,NAN,5.30000
22460,0x000E,1,FALSE,1165.51,4.40197,0.18940,3.67440,NAN,NAN,6.90000
22670,0x000E,1,FALSE,1176.45,4.44222,0.18940,3.67810,NAN,NAN,8.10000
22880,0x000E,1,FALSE,1187.3,4.48210,0.18940,3.67830,NAN,NAN,6.70000
23090,0x000E,1,FALSE,1198.19,4.52213,0.18940,3.66990,NAN,NAN,3.20000
23300,0x000E,1,FALSE,1209.14,4.56225,0.18930,3.65890,NAN,NAN,3.00000
23510,0x000E,1,FALSE,1219.98,4.60186,0.18940,3.64990,NAN,NAN,2.20000
23720,0x000E,1,FALSE,1230.87,4.64156,0.18940,3.63940,NAN,NAN,1.50000
23930,0x000E,1,FALSE,1241.82,4.68134,0.18940,3.63070,NAN,NAN,1.40000
24140,0x000E,1,FALSE,1252.66,4.72064,0.18940,3.62110,NAN,NAN,0.60000
24350,0x000E,1,FALSE,1263.55,4.76003,0.18940,3.61240,NAN,NAN,0.80000
24560,0x000E,1,FALSE,1274.5,4.79953,0.18940,3.60560,NAN,NAN,0.40000
24770,0x000E,1,FALSE,1285.34,4.83857,0.18930,3.59800,NAN,NAN,0.80000
24980,0x000E,1,FALSE,1296.23,4.87774,0.18940,3.59330,NAN,NAN,1.00000
25190,0x000E,1,FALSE,1307.18,4.91705,0.18940,3.58710,NAN,NAN,0.50000
25400,0x000E,1,FALSE,1318.03,4.95594,0.18940,3.58230,NAN,NAN,0.70000
25610,0x000E,1,FALSE,1328.93,4.99496,0.18930,3.57760,NAN,NAN,-0.30000
25820,0x000E,1,FALSE,1339.88,5.03408,0.18940,3.57170,NAN,NAN,0.50000
26030,0x000E,1,FALSE,1350.72,5.07277,0.18940,3.56760,NAN,NAN,0.90000
26240,0x000E,1,FALSE,1361.61,5.11159,0.18940,3.55980,NAN,NAN,0.50000
26450,0x000E,1,FALSE,1372.56,5.15054,0.18940,3.55370,NAN,NAN,0.80000
26660,0x000E,1,FALSE,1383.41,5.18904,0.18940,3.54570,NAN,NAN,0.10000
26870,0x000E,1,FALSE,1394.3,5.22763,0.18940,3.53680,NAN,NAN,0.60000
27080,0x000E,1,FALSE,1405.25,5.26631,0.18940,3.52860,NAN,NAN,0.40000
27290,0x000E,1,FALSE,1416.1,5.30450,0.18940,3.51510,NAN,NAN,0.60000
27500,0x000E,1,FALSE,1427.05,5.34291,0.18940,3.50250,NAN,NAN,0.90000
27710,0x000E,1,FALSE,1437.95,5.38100,0.18940,3.48450,NAN,NAN,0.40000
27920,0x000E,1,FALSE,1448.8,5.41869,0.18940,3.46430,NAN,NAN,0.70000
28130,0x000E,1,FALSE,1459.75,5.45651,0.18940,3.43990,NAN,NAN,0.10000
28340,0x000E,1,FALSE,1470.65,5.49380,0.18940,3.40510,NAN,NAN,0.70000
28550,0x000E,1,FALSE,1481.49,5.53052,0.18940,3.36450,NAN,NAN,1.10000
28760,0x000E,1,FALSE,1492.44,5.56706,0.18940,3.30570,NAN,NAN,0.70000
28970,0x000E,1,FALSE,1503.34,5.60267,0.18940,3.23000,NAN,NAN,1.00000
29180,0x000E,1,FALSE,1514.18,5.63716,0.18940,3.12450,NAN,NAN,0.20000
29390,0x000E,1,FALSE,1525.12,5.67056,0.18940,2.97120,NAN,NAN,1.00000
29600,0x000E,1,FALSE,1535.97,5.70168,0.18940,2.76130,NAN,NAN,1.50000
29608,0x000E,1,FALSE,1536.43,3.51668,0.18940,2.74990,NAN,NAN,1.40000

[DISCHARGE RESULT]
LoRange,FALSE
FinishedBy,1(Cut Voltage)
OpenVolt[V],4.02500
OpenCurr[A],0.00010
OpenTemp[°C],-0.30000
StartVolt[V],4.00550
StartCurr[A],0.18910
StartTemp[°C],-0.30000
CutoffVolt[V],2.74990
CutoffCurr[A],0.18940
CutoffTemp[°C],1.40000
TimeElapsed[s],29608
Power[Wh],3.51668
StartPulseA[V],NAN
CurrPulseA[V],NAN
StartPulseB[V],NAN
CurrPulseB[V],NAN
TempSet[°C],OFF
TempMon[°C],OFF
HumidSet[%],OFF
HumidMon[%],OFF

[LIFE]
CycleNo,2
Action,Discharge
Start,2021/02/28,21:40:14
End,2021/03/01,5:53:45
Capacity[mAh],925.031

[IMPEDANCE],AfterCharge,AfterRest
Range,0,0
AutoRange,FALSE,FALSE
Resistance[ohm],NAN,NAN
Reactance[ohm],NAN,NAN