File: csvFiles/20210227/temp12.CSV
[TEST CONDITION]
CondName,バッテリ温度特性試験20210227
ModelID,21
Average,0
CheckDut,FALSE
AutoFine,FALSE
DateTime,2021/02/27,21:40:39
Operator,米山まうむ
Notes,運用に向けてバッテリの温度特性を測定する
運用時の消費電流を鑑み，0.1C放電で行う
なおこんなに運用直前にやることではないので，次期プロジェクトの人間はもっと早い段階で行うことをお勧めする
BatteryName,UF103450P
NominalCapacity[mAh],1800.0
NominalVoltage[V],3.70000
Volume[ml],0.10
Weight[g],38.30
SoftOvp[V],4.40000
SoftUvp[V],2.50000
SoftOah[%],110
SoftOtp[°C],60.00000
DeltaT[s],10.00000
DeltaV[V],0.10000
DeltaI[A],0.10000
ImpRange[ohm],0
Frequency[Hz],1000
AutoRange,FALSE
AfterCharge,FALSE
AfterChargeRest,FALSE
AfterDischarge,FALSE
AfterDischargeRest,FALSE
CapacityRate_C[%],OFF
CapacityRate_D[%],OFF
Impedance_C[ohm],OFF
Impedance_D[ohm],OFF
SeqInfoName,

[CHARGE SHEET]
SheetNo,2
Range,HIGH
Mode,CC-CV
ChargeTime[s],0
RestTime[s],0
Current[A],0.00000
CvVolt[V],0.00000
CvTime[s],0
ItCurrent[A],OFF
ItTime[s],OFF

[DISCHARGE SHEET]
SheetNo,2
Range,HIGH
Mode,CC
DischargeTime[s],43200
RestTime[s],0
Current[A],0.18800
CapacityVolt[V],3.70000
CutoffVolt[V],2.75000

[DISCHARGE MONITOR]
TimeElapsed[s],StdState,OpnState,LowRange,Capacity[mAh],Power[Wh],Curr[A],Volt[V],VoltHi[V],VoltLo[V],Temp[°C],TermState,CellVolt[V],CellVoltHi[V],CellVoltLo[V],CellTemp[°C],(continued)
0,0x000E,0,FALSE,0.00000,0.00000,0.00000,4.09150,NAN,NAN,12.60000
220,0x000E,1,FALSE,10.93383,0.04432,0.18930,4.04680,NAN,NAN,12.10000
450,0x000E,1,FALSE,22.48033,0.09099,0.18930,4.03890,NAN,NAN,12.40000
680,0x000E,1,FALSE,33.92870,0.13719,0.18930,4.03260,NAN,NAN,12.00000
910,0x000E,1,FALSE,45.47603,0.18372,0.18930,4.02640,NAN,NAN,12.20000
1140,0x000E,1,FALSE,56.91544,0.22974,0.18930,4.02110,NAN,NAN,12.30000
1370,0x000E,1,FALSE,68.45353,0.27610,0.18930,4.01540,NAN,NAN,12.20000
1600,0x000E,1,FALSE,79.89333,0.32200,0.18930,4.01010,NAN,NAN,12.80000
1830,0x000E,1,FALSE,91.38264,0.36804,0.18930,4.00450,NAN,NAN,12.30000
2060,0x000E,1,FALSE,102.926,0.41423,0.18930,3.99890,NAN,NAN,12.60000
2290,0x000E,1,FALSE,114.362,0.45993,0.18930,3.99360,NAN,NAN,12.20000
2520,0x000E,1,FALSE,125.901,0.50598,0.18930,3.98790,NAN,NAN,12.30000
2750,0x000E,1,FALSE,137.343,0.55158,0.18930,3.98280,NAN,NAN,12.10000
2980,0x000E,1,FALSE,148.887,0.59752,0.18930,3.97730,NAN,NAN,12.10000
3210,0x000E,1,FALSE,160.334,0.64301,0.18930,3.97250,NAN,NAN,12.80000
3440,0x000E,1,FALSE,171.83,0.68865,0.18930,3.96730,NAN,NAN,12.30000
3670,0x000E,1,FALSE,183.376,0.73442,0.18930,3.96240,NAN,NAN,12.70000
3900,0x000E,1,FALSE,194.821,0.77974,0.18930,3.95780,NAN,NAN,12.10000
4130,0x000E,1,FALSE,206.364,0.82539,0.18930,3.95300,NAN,NAN,12.40000
4360,0x000E,1,FALSE,217.81,0.87061,0.18930,3.94880,NAN,NAN,11.90000
4590,0x000E,1,FALSE,229.352,0.91616,0.18930,3.94420,NAN,NAN,12.10000
4820,0x000E,1,FALSE,240.796,0.96127,0.18930,3.94010,NAN,NAN,12.60000
5050,0x000E,1,FALSE,252.288,1.00652,0.18930,3.93570,NAN,NAN,12.20000
5280,0x000E,1,FALSE,263.833,1.05193,0.18930,3.93140,NAN,NAN,12.70000
5510,0x000E,1,FALSE,275.273,1.09688,0.18930,3.92720,NAN,NAN,12.20000
5740,0x000E,1,FALSE,286.815,1.14218,0.18930,3.92280,NAN,NAN,12.50000
5970,0x000E,1,FALSE,298.254,1.18703,0.18930,3.91890,NAN,NAN,12.10000
6200,0x000E,1,FALSE,309.793,1.23222,0.18930,3.91440,NAN,NAN,12.10000
6430,0x000E,1,FALSE,321.231,1.27696,0.18930,3.91050,NAN,NAN,12.40000
6660,0x000E,1,FALSE,332.721,1.32186,0.18930,3.90610,NAN,NAN,12.30000
6890,0x000E,1,FALSE,344.259,1.36691,0.18930,3.90200,NAN,NAN,12.80000
7120,0x000E,1,FALSE,355.698,1.41152,0.18930,3.89780,NAN,NAN,12.30000
7350,0x000E,1,FALSE,367.234,1.45645,0.18930,3.89340,NAN,NAN,12.60000
7580,0x000E,1,FALSE,378.671,1.50096,0.18930,3.88940,NAN,NAN,12.10000
7810,0x000E,1,FALSE,390.21,1.54580,0.18930,3.88480,NAN,NAN,12.30000
8040,0x000E,1,FALSE,401.642,1.59019,0.18930,3.88090,NAN,NAN,12.20000
8270,0x000E,1,FALSE,413.177,1.63493,0.18930,3.87620,NAN,NAN,12.20000
8500,0x000E,1,FALSE,424.664,1.67942,0.18930,3.87190,NAN,NAN,12.80000
8730,0x000E,1,FALSE,436.103,1.72368,0.18930,3.86710,NAN,NAN,12.30000
8960,0x000E,1,FALSE,447.647,1.76829,0.18930,3.86220,NAN,NAN,12.70000
9190,0x000E,1,FALSE,459.086,1.81244,0.18930,3.85740,NAN,NAN,12.20000
9420,0x000E,1,FALSE,470.626,1.85692,0.18930,3.85190,NAN,NAN,12.40000
9650,0x000E,1,FALSE,482.07,1.90097,0.18930,3.84690,NAN,NAN,12.10000
9880,0x000E,1,FALSE,493.616,1.94535,0.18930,3.84090,NAN,NAN,12.10000
10110,0x000E,1,FALSE,505.062,1.98928,0.18930,3.83550,NAN,NAN,12.80000
10340,0x000E,1,FALSE,516.555,2.03332,0.18930,3.82960,NAN,NAN,12.40000
10570,0x000E,1,FALSE,528.095,2.07748,0.18930,3.82410,NAN,NAN,12.80000
10800,0x000E,1,FALSE,539.537,2.12120,0.18930,3.81890,NAN,NAN,12.30000
11030,0x000E,1,FALSE,551.078,2.16525,0.18930,3.81380,NAN,NAN,12.50000
11260,0x000E,1,FALSE,562.521,2.20886,0.18930,3.80970,NAN,NAN,12.00000
11490,0x000E,1,FALSE,574.064,2.25281,0.18930,3.80540,NAN,NAN,12.20000
11720,0x000E,1,FALSE,585.505,2.29632,0.18930,3.80220,NAN,NAN,12.50000
11950,0x000E,1,FALSE,596.995,2.33998,0.18930,3.79870,NAN,NAN,12.30000
12180,0x000E,1,FALSE,608.536,2.38380,0.18930,3.79560,NAN,NAN,12.80000
12410,0x000E,1,FALSE,619.972,2.42719,0.18930,3.79270,NAN,NAN,12.20000
12640,0x000E,1,FALSE,631.51,2.47093,0.18930,3.78980,NAN,NAN,12.60000
12870,0x000E,1,FALSE,642.951,2.51427,0.18930,3.78730,NAN,NAN,12.10000
13100,0x000E,1,FALSE,654.487,2.55794,0.18930,3.78460,NAN,NAN,12.20000
13330,0x000E,1,FALSE,665.923,2.60121,0.18930,3.78240,NAN,NAN,12.20000
13560,0x000E,1,FALSE,677.411,2.64464,0.18930,3.77980,NAN,NAN,12.10000
13790,0x000E,1,FALSE,688.948,2.68823,0.18930,3.77770,NAN,NAN,12.80000
14020,0x000E,1,FALSE,700.383,2.73141,0.18930,3.77540,NAN,NAN,12.30000
14250,0x000E,1,FALSE,711.919,2.77495,0.18930,3.77310,NAN,NAN,12.60000
14480,0x000E,1,FALSE,723.357,2.81809,0.18930,3.77110,NAN,NAN,12.20000
14710,0x000E,1,FALSE,734.894,2.86159,0.18930,3.76880,NAN,NAN,12.30000
14940,0x000E,1,FALSE,746.334,2.90469,0.18930,3.76710,NAN,NAN,12.10000
15170,0x000E,1,FALSE,757.871,2.94813,0.18930,3.76500,NAN,NAN,12.10000
15400,0x000E,1,FALSE,769.359,2.99137,0.18930,3.76330,NAN,NAN,12.80000
15630,0x000E,1,FALSE,780.795,3.03439,0.18930,3.76130,NAN,NAN,12.30000
15860,0x000E,1,FALSE,792.329,3.07776,0.18930,3.75940,NAN,NAN,12.70000
16090,0x000E,1,FALSE,803.765,3.12074,0.18930,3.75770,NAN,NAN,12.20000
16320,0x000E,1,FALSE,815.299,3.16407,0.18930,3.75580,NAN,NAN,12.40000
16550,0x000E,1,FALSE,826.735,3.20701,0.18930,3.75440,NAN,NAN,12.00000
16780,0x000E,1,FALSE,838.275,3.25032,0.18930,3.75260,NAN,NAN,12.10000
17010,0x000E,1,FALSE,849.714,3.29324,0.18930,3.75120,NAN,NAN,12.60000
17240,0x000E,1,FALSE,861.199,3.33631,0.18930,3.74950,NAN,NAN,12.30000
17470,0x000E,1,FALSE,872.734,3.37954,0.18930,3.74810,NAN,NAN,12.80000
17700,0x000E,1,FALSE,884.17,3.42240,0.18930,3.74670,NAN,NAN,12.30000
17930,0x000E,1,FALSE,895.71,3.46562,0.18930,3.74520,NAN,NAN,12.60000
18160,0x000E,1,FALSE,907.148,3.50845,0.18940,3.74400,NAN,NAN,12.10000
18390,0x000E,1,FALSE,918.688,3.55165,0.18930,3.74250,NAN,NAN,12.30000
18620,0x000E,1,FALSE,930.129,3.59446,0.18930,3.74160,NAN,NAN,12.40000
18850,0x000E,1,FALSE,941.618,3.63743,0.18930,3.74020,NAN,NAN,12.30000
19080,0x000E,1,FALSE,953.156,3.68057,0.18930,3.73920,NAN,NAN,12.90000
19310,0x000E,1,FALSE,964.599,3.72335,0.18930,3.73810,NAN,NAN,12.40000
19540,0x000E,1,FALSE,976.143,3.76649,0.18930,3.73690,NAN,NAN,12.70000
19770,0x000E,1,FALSE,987.584,3.80924,0.18930,3.73600,NAN,NAN,12.30000
20000,0x000E,1,FALSE,999.122,3.85234,0.18930,3.73490,NAN,NAN,12.50000
20230,0x000E,1,FALSE,1010.56,3.89504,0.18930,3.73410,NAN,NAN,12.10000
20460,0x000E,1,FALSE,1022.05,3.93793,0.18930,3.73300,NAN,NAN,12.20000
20690,0x000E,1,FALSE,1033.58,3.98099,0.18930,3.73220,NAN,NAN,12.80000
20920,0x000E,1,FALSE,1045.02,4.02366,0.18930,3.73110,NAN,NAN,12.40000
21150,0x000E,1,FALSE,1056.55,4.06669,0.18930,3.73000,NAN,NAN,12.90000
21380,0x000E,1,FALSE,1067.99,4.10935,0.18930,3.72900,NAN,NAN,12.40000
21610,0x000E,1,FALSE,1079.53,4.15236,0.18930,3.72780,NAN,NAN,12.60000
21840,0x000E,1,FALSE,1090.97,4.19499,0.18930,3.72680,NAN,NAN,12.20000
22070,0x000E,1,FALSE,1102.46,4.23780,0.18930,3.72540,NAN,NAN,12.30000
22300,0x000E,1,FALSE,1114,4.28078,0.18930,3.72430,NAN,NAN,12.60000
22530,0x000E,1,FALSE,1125.44,4.32337,0.18930,3.72270,NAN,NAN,12.50000
22760,0x000E,1,FALSE,1136.98,4.36631,0.18930,3.72120,NAN,NAN,13.00000
22990,0x000E,1,FALSE,1148.41,4.40886,0.18930,3.71940,NAN,NAN,12.50000
23220,0x000E,1,FALSE,1159.95,4.45175,0.18930,3.71740,NAN,NAN,12.80000
23450,0x000E,1,FALSE,1171.39,4.49425,0.18930,3.71540,NAN,NAN,12.40000
23680,0x000E,1,FALSE,1182.92,4.53709,0.18930,3.71300,NAN,NAN,12.60000
23910,0x000E,1,FALSE,1194.36,4.57955,0.18930,3.71080,NAN,NAN,12.40000
24140,0x000E,1,FALSE,1205.85,4.62215,0.18930,3.70800,NAN,NAN,12.40000
24370,0x000E,1,FALSE,1217.38,4.66491,0.18930,3.70530,NAN,NAN,13.10000
24600,0x000E,1,FALSE,1228.81,4.70725,0.18930,3.70210,NAN,NAN,12.60000
24830,0x000E,1,FALSE,1240.35,4.74993,0.18930,3.69870,NAN,NAN,13.00000
25060,0x000E,1,FALSE,1251.79,4.79221,0.18930,3.69500,NAN,NAN,12.60000
25290,0x000E,1,FALSE,1263.32,4.83480,0.18930,3.69060,NAN,NAN,12.70000
25520,0x000E,1,FALSE,1274.76,4.87698,0.18930,3.68590,NAN,NAN,12.30000
25750,0x000E,1,FALSE,1286.24,4.91928,0.18930,3.68070,NAN,NAN,12.40000
25980,0x000E,1,FALSE,1297.78,4.96172,0.18930,3.67580,NAN,NAN,12.90000
26210,0x000E,1,FALSE,1309.22,5.00372,0.18930,3.67020,NAN,NAN,12.70000
26440,0x000E,1,FALSE,1320.75,5.04602,0.18930,3.66390,NAN,NAN,13.10000
26670,0x000E,1,FALSE,1332.19,5.08788,0.18930,3.65690,NAN,NAN,12.60000
26900,0x000E,1,FALSE,1343.72,5.13002,0.18930,3.65060,NAN,NAN,12.80000
27130,0x000E,1,FALSE,1355.16,5.17174,0.18930,3.64720,NAN,NAN,12.50000
27360,0x000E,1,FALSE,1366.65,5.21362,0.18930,3.64480,NAN,NAN,12.60000
27590,0x000E,1,FALSE,1378.18,5.25565,0.18930,3.64300,NAN,NAN,12.60000
27820,0x000E,1,FALSE,1389.62,5.29730,0.18930,3.64080,NAN,NAN,12.50000
28050,0x000E,1,FALSE,1401.16,5.33929,0.18930,3.63870,NAN,NAN,13.10000
28280,0x000E,1,FALSE,1412.59,5.38088,0.18930,3.63630,NAN,NAN,12.70000
28510,0x000E,1,FALSE,1424.12,5.42280,0.18930,3.63350,NAN,NAN,13.00000
28740,0x000E,1,FALSE,1435.56,5.46433,0.18930,3.63060,NAN,NAN,12.50000
28970,0x000E,1,FALSE,1447.05,5.50601,0.18930,3.62680,NAN,NAN,12.70000
29200,0x000E,1,FALSE,1458.58,5.54783,0.18930,3.62290,NAN,NAN,12.30000
29430,0x000E,1,FALSE,1470.02,5.58923,0.18930,3.61760,NAN,NAN,12.40000
29660,0x000E,1,FALSE,1481.56,5.63093,0.18930,3.61160,NAN,NAN,12.90000
29890,0x000E,1,FALSE,1492.99,5.67218,0.18930,3.60270,NAN,NAN,12.70000
30120,0x000E,1,FALSE,1504.53,5.71367,0.18930,3.58960,NAN,NAN,13.10000
30350,0x000E,1,FALSE,1515.97,5.75462,0.18930,3.56830,NAN,NAN,12.70000
30580,0x000E,1,FALSE,1527.51,5.79560,0.18930,3.53420,NAN,NAN,13.00000
30810,0x000E,1,FALSE,1538.94,5.83576,0.18930,3.48790,NAN,NAN,12.60000
31040,0x000E,1,FALSE,1550.43,5.87549,0.18930,3.42630,NAN,NAN,12.80000
31270,0x000E,1,FALSE,1561.97,5.91458,0.18930,3.34730,NAN,NAN,12.80000
31500,0x000E,1,FALSE,1573.41,5.95228,0.18930,3.23830,NAN,NAN,12.70000
31730,0x000E,1,FALSE,1584.94,5.98873,0.18930,3.05950,NAN,NAN,13.40000
31876,0x000E,1,FALSE,1592.19,4.72222,0.18950,2.75000,NAN,NAN,12.90000

[DISCHARGE RESULT]
LoRange,FALSE
FinishedBy,1(Cut Voltage)
OpenVolt[V],4.06740
OpenCurr[A],0.00010
OpenTemp[°C],12.70000
StartVolt[V],4.06650
StartCurr[A],0.18920
StartTemp[°C],12.70000
CutoffVolt[V],2.75000
CutoffCurr[A],0.18950
CutoffTemp[°C],12.90000
TimeElapsed[s],31876
Power[Wh],4.72222
StartPulseA[V],NAN
CurrPulseA[V],NAN
StartPulseB[V],NAN
CurrPulseB[V],NAN
TempSet[°C],OFF
TempMon[°C],OFF
HumidSet[%],OFF
HumidMon[%],OFF

[LIFE]
CycleNo,2
Action,Discharge
Start,2021/03/08,3:35:23
End,2021/03/08,12:26:43
Capacity[mAh],1232.86

[IMPEDANCE],AfterCharge,AfterRest
Range,0,0
AutoRange,FALSE,FALSE
Resistance[ohm],NAN,NAN
Reactance[ohm],NAN,NAN